# v / cm^-1, IR Int./ AU, Raman Int. / AU
 -100.00  0.000 
  -99.00  0.000 
  -98.00  0.000 
  -97.00  0.000 
  -96.00  0.000 
  -95.00  0.000 
  -94.00  0.000 
  -93.00  0.000 
  -92.00  0.000 
  -91.00  0.000 
  -90.00  0.000 
  -89.00  0.000 
  -88.00  0.000 
  -87.00  0.000 
  -86.00  0.000 
  -85.00  0.000 
  -84.00  0.000 
  -83.00  0.000 
  -82.00  0.000 
  -81.00  0.000 
  -80.00  0.000 
  -79.00  0.000 
  -78.00  0.000 
  -77.00  0.000 
  -76.00  0.000 
  -75.00  0.000 
  -74.00  0.000 
  -73.00  0.000 
  -72.00  0.000 
  -71.00  0.000 
  -70.00  0.000 
  -69.00  0.000 
  -68.00  0.000 
  -67.00  0.000 
  -66.00  0.000 
  -65.00  0.000 
  -64.00  0.000 
  -63.00  0.000 
  -62.00  0.000 
  -61.00  0.000 
  -60.00  0.000 
  -59.00  0.000 
  -58.00  0.000 
  -57.00  0.000 
  -56.00  0.000 
  -55.00  0.000 
  -54.00  0.000 
  -53.00  0.000 
  -52.00  0.000 
  -51.00  0.000 
  -50.00  0.000 
  -49.00  0.000 
  -48.00  0.000 
  -47.00  0.000 
  -46.00  0.000 
  -45.00  0.000 
  -44.00  0.000 
  -43.00  0.000 
  -42.00  0.000 
  -41.00  0.000 
  -40.00  0.000 
  -39.00  0.000 
  -38.00  0.000 
  -37.00  0.000 
  -36.00  0.000 
  -35.00  0.000 
  -34.00  0.000 
  -33.00  0.000 
  -32.00  0.000 
  -31.00  0.000 
  -30.00  0.000 
  -29.00  0.000 
  -28.00  0.000 
  -27.00  0.000 
  -26.00  0.000 
  -25.00  0.000 
  -24.00  0.000 
  -23.00  0.000 
  -22.00  0.000 
  -21.00  0.000 
  -20.00  0.000 
  -19.00  0.000 
  -18.00  0.000 
  -17.00  0.000 
  -16.00  0.000 
  -15.00  0.000 
  -14.00  0.000 
  -13.00  0.000 
  -12.00  0.000 
  -11.00  0.000 
  -10.00  0.000 
   -9.00  0.000 
   -8.00  0.000 
   -7.00  0.000 
   -6.00  0.000 
   -5.00  0.000 
   -4.00  0.000 
   -3.00  0.000 
   -2.00  0.000 
   -1.00  0.000 
    0.00  0.000 
    1.00  0.000 
    2.00  0.000 
    3.00  0.000 
    4.00  0.000 
    5.00  0.000 
    6.00  0.000 
    7.00  0.000 
    8.00  0.001 
    9.00  0.001 
   10.00  0.001 
   11.00  0.001 
   12.00  0.001 
   13.00  0.001 
   14.00  0.001 
   15.00  0.001 
   16.00  0.001 
   17.00  0.001 
   18.00  0.001 
   19.00  0.001 
   20.00  0.001 
   21.00  0.001 
   22.00  0.001 
   23.00  0.001 
   24.00  0.001 
   25.00  0.001 
   26.00  0.001 
   27.00  0.001 
   28.00  0.001 
   29.00  0.001 
   30.00  0.001 
   31.00  0.001 
   32.00  0.001 
   33.00  0.001 
   34.00  0.001 
   35.00  0.001 
   36.00  0.001 
   37.00  0.001 
   38.00  0.001 
   39.00  0.001 
   40.00  0.001 
   41.00  0.001 
   42.00  0.001 
   43.00  0.001 
   44.00  0.001 
   45.00  0.001 
   46.00  0.001 
   47.00  0.001 
   48.00  0.001 
   49.00  0.001 
   50.00  0.001 
   51.00  0.001 
   52.00  0.001 
   53.00  0.001 
   54.00  0.001 
   55.00  0.001 
   56.00  0.002 
   57.00  0.002 
   58.00  0.002 
   59.00  0.002 
   60.00  0.002 
   61.00  0.002 
   62.00  0.002 
   63.00  0.002 
   64.00  0.002 
   65.00  0.001 
   66.00  0.001 
   67.00  0.001 
   68.00  0.001 
   69.00  0.001 
   70.00  0.001 
   71.00  0.001 
   72.00  0.001 
   73.00  0.001 
   74.00  0.001 
   75.00  0.001 
   76.00  0.001 
   77.00  0.001 
   78.00  0.001 
   79.00  0.001 
   80.00  0.001 
   81.00  0.001 
   82.00  0.001 
   83.00  0.001 
   84.00  0.001 
   85.00  0.001 
   86.00  0.001 
   87.00  0.001 
   88.00  0.001 
   89.00  0.001 
   90.00  0.001 
   91.00  0.001 
   92.00  0.001 
   93.00  0.001 
   94.00  0.001 
   95.00  0.001 
   96.00  0.001 
   97.00  0.001 
   98.00  0.001 
   99.00  0.001 
  100.00  0.001 
  101.00  0.001 
  102.00  0.001 
  103.00  0.001 
  104.00  0.001 
  105.00  0.001 
  106.00  0.001 
  107.00  0.001 
  108.00  0.001 
  109.00  0.001 
  110.00  0.001 
  111.00  0.001 
  112.00  0.001 
  113.00  0.001 
  114.00  0.001 
  115.00  0.001 
  116.00  0.001 
  117.00  0.001 
  118.00  0.001 
  119.00  0.001 
  120.00  0.001 
  121.00  0.001 
  122.00  0.001 
  123.00  0.001 
  124.00  0.001 
  125.00  0.001 
  126.00  0.001 
  127.00  0.001 
  128.00  0.001 
  129.00  0.001 
  130.00  0.001 
  131.00  0.001 
  132.00  0.001 
  133.00  0.001 
  134.00  0.001 
  135.00  0.001 
  136.00  0.001 
  137.00  0.001 
  138.00  0.001 
  139.00  0.001 
  140.00  0.002 
  141.00  0.002 
  142.00  0.002 
  143.00  0.002 
  144.00  0.002 
  145.00  0.002 
  146.00  0.002 
  147.00  0.002 
  148.00  0.002 
  149.00  0.002 
  150.00  0.002 
  151.00  0.002 
  152.00  0.002 
  153.00  0.002 
  154.00  0.002 
  155.00  0.002 
  156.00  0.002 
  157.00  0.002 
  158.00  0.003 
  159.00  0.003 
  160.00  0.003 
  161.00  0.003 
  162.00  0.003 
  163.00  0.004 
  164.00  0.004 
  165.00  0.004 
  166.00  0.005 
  167.00  0.005 
  168.00  0.006 
  169.00  0.006 
  170.00  0.006 
  171.00  0.005 
  172.00  0.005 
  173.00  0.005 
  174.00  0.004 
  175.00  0.004 
  176.00  0.004 
  177.00  0.004 
  178.00  0.004 
  179.00  0.004 
  180.00  0.004 
  181.00  0.005 
  182.00  0.005 
  183.00  0.005 
  184.00  0.005 
  185.00  0.006 
  186.00  0.006 
  187.00  0.007 
  188.00  0.008 
  189.00  0.008 
  190.00  0.009 
  191.00  0.011 
  192.00  0.012 
  193.00  0.014 
  194.00  0.016 
  195.00  0.019 
  196.00  0.023 
  197.00  0.027 
  198.00  0.031 
  199.00  0.035 
  200.00  0.037 
  201.00  0.036 
  202.00  0.033 
  203.00  0.029 
  204.00  0.025 
  205.00  0.021 
  206.00  0.018 
  207.00  0.016 
  208.00  0.014 
  209.00  0.012 
  210.00  0.011 
  211.00  0.010 
  212.00  0.010 
  213.00  0.009 
  214.00  0.009 
  215.00  0.009 
  216.00  0.009 
  217.00  0.008 
  218.00  0.009 
  219.00  0.009 
  220.00  0.009 
  221.00  0.009 
  222.00  0.009 
  223.00  0.010 
  224.00  0.010 
  225.00  0.011 
  226.00  0.012 
  227.00  0.013 
  228.00  0.014 
  229.00  0.015 
  230.00  0.017 
  231.00  0.019 
  232.00  0.021 
  233.00  0.024 
  234.00  0.028 
  235.00  0.032 
  236.00  0.038 
  237.00  0.046 
  238.00  0.055 
  239.00  0.065 
  240.00  0.076 
  241.00  0.085 
  242.00  0.088 
  243.00  0.086 
  244.00  0.078 
  245.00  0.069 
  246.00  0.059 
  247.00  0.051 
  248.00  0.045 
  249.00  0.041 
  250.00  0.038 
  251.00  0.037 
  252.00  0.036 
  253.00  0.036 
  254.00  0.035 
  255.00  0.034 
  256.00  0.031 
  257.00  0.029 
  258.00  0.026 
  259.00  0.023 
  260.00  0.021 
  261.00  0.020 
  262.00  0.019 
  263.00  0.018 
  264.00  0.017 
  265.00  0.017 
  266.00  0.017 
  267.00  0.017 
  268.00  0.018 
  269.00  0.019 
  270.00  0.019 
  271.00  0.021 
  272.00  0.022 
  273.00  0.024 
  274.00  0.027 
  275.00  0.030 
  276.00  0.033 
  277.00  0.038 
  278.00  0.043 
  279.00  0.049 
  280.00  0.054 
  281.00  0.058 
  282.00  0.061 
  283.00  0.065 
  284.00  0.071 
  285.00  0.078 
  286.00  0.089 
  287.00  0.103 
  288.00  0.120 
  289.00  0.137 
  290.00  0.151 
  291.00  0.156 
  292.00  0.150 
  293.00  0.135 
  294.00  0.116 
  295.00  0.098 
  296.00  0.082 
  297.00  0.069 
  298.00  0.058 
  299.00  0.050 
  300.00  0.043 
  301.00  0.038 
  302.00  0.034 
  303.00  0.031 
  304.00  0.028 
  305.00  0.026 
  306.00  0.025 
  307.00  0.024 
  308.00  0.023 
  309.00  0.022 
  310.00  0.022 
  311.00  0.022 
  312.00  0.022 
  313.00  0.022 
  314.00  0.023 
  315.00  0.024 
  316.00  0.026 
  317.00  0.027 
  318.00  0.029 
  319.00  0.030 
  320.00  0.030 
  321.00  0.030 
  322.00  0.030 
  323.00  0.029 
  324.00  0.030 
  325.00  0.030 
  326.00  0.032 
  327.00  0.033 
  328.00  0.036 
  329.00  0.039 
  330.00  0.044 
  331.00  0.049 
  332.00  0.057 
  333.00  0.066 
  334.00  0.077 
  335.00  0.092 
  336.00  0.109 
  337.00  0.128 
  338.00  0.146 
  339.00  0.157 
  340.00  0.158 
  341.00  0.149 
  342.00  0.132 
  343.00  0.114 
  344.00  0.097 
  345.00  0.083 
  346.00  0.071 
  347.00  0.062 
  348.00  0.056 
  349.00  0.050 
  350.00  0.046 
  351.00  0.043 
  352.00  0.041 
  353.00  0.040 
  354.00  0.039 
  355.00  0.039 
  356.00  0.039 
  357.00  0.039 
  358.00  0.041 
  359.00  0.042 
  360.00  0.044 
  361.00  0.047 
  362.00  0.050 
  363.00  0.054 
  364.00  0.059 
  365.00  0.065 
  366.00  0.073 
  367.00  0.083 
  368.00  0.095 
  369.00  0.107 
  370.00  0.120 
  371.00  0.131 
  372.00  0.138 
  373.00  0.139 
  374.00  0.138 
  375.00  0.137 
  376.00  0.139 
  377.00  0.144 
  378.00  0.154 
  379.00  0.169 
  380.00  0.189 
  381.00  0.217 
  382.00  0.253 
  383.00  0.300 
  384.00  0.359 
  385.00  0.427 
  386.00  0.501 
  387.00  0.564 
  388.00  0.600 
  389.00  0.595 
  390.00  0.554 
  391.00  0.495 
  392.00  0.434 
  393.00  0.384 
  394.00  0.348 
  395.00  0.326 
  396.00  0.319 
  397.00  0.326 
  398.00  0.344 
  399.00  0.370 
  400.00  0.395 
  401.00  0.409 
  402.00  0.401 
  403.00  0.371 
  404.00  0.325 
  405.00  0.277 
  406.00  0.232 
  407.00  0.195 
  408.00  0.164 
  409.00  0.139 
  410.00  0.120 
  411.00  0.104 
  412.00  0.091 
  413.00  0.081 
  414.00  0.072 
  415.00  0.065 
  416.00  0.059 
  417.00  0.054 
  418.00  0.049 
  419.00  0.046 
  420.00  0.042 
  421.00  0.040 
  422.00  0.037 
  423.00  0.036 
  424.00  0.034 
  425.00  0.032 
  426.00  0.031 
  427.00  0.030 
  428.00  0.028 
  429.00  0.027 
  430.00  0.025 
  431.00  0.024 
  432.00  0.023 
  433.00  0.022 
  434.00  0.021 
  435.00  0.021 
  436.00  0.020 
  437.00  0.019 
  438.00  0.019 
  439.00  0.019 
  440.00  0.018 
  441.00  0.018 
  442.00  0.018 
  443.00  0.017 
  444.00  0.017 
  445.00  0.017 
  446.00  0.017 
  447.00  0.017 
  448.00  0.017 
  449.00  0.017 
  450.00  0.017 
  451.00  0.017 
  452.00  0.017 
  453.00  0.017 
  454.00  0.018 
  455.00  0.018 
  456.00  0.018 
  457.00  0.019 
  458.00  0.019 
  459.00  0.020 
  460.00  0.020 
  461.00  0.021 
  462.00  0.022 
  463.00  0.022 
  464.00  0.023 
  465.00  0.025 
  466.00  0.026 
  467.00  0.027 
  468.00  0.029 
  469.00  0.031 
  470.00  0.033 
  471.00  0.035 
  472.00  0.038 
  473.00  0.041 
  474.00  0.045 
  475.00  0.049 
  476.00  0.054 
  477.00  0.060 
  478.00  0.068 
  479.00  0.077 
  480.00  0.087 
  481.00  0.101 
  482.00  0.117 
  483.00  0.138 
  484.00  0.165 
  485.00  0.198 
  486.00  0.240 
  487.00  0.292 
  488.00  0.351 
  489.00  0.413 
  490.00  0.465 
  491.00  0.490 
  492.00  0.478 
  493.00  0.434 
  494.00  0.374 
  495.00  0.313 
  496.00  0.258 
  497.00  0.213 
  498.00  0.177 
  499.00  0.148 
  500.00  0.125 
  501.00  0.107 
  502.00  0.093 
  503.00  0.081 
  504.00  0.072 
  505.00  0.064 
  506.00  0.058 
  507.00  0.053 
  508.00  0.048 
  509.00  0.044 
  510.00  0.041 
  511.00  0.039 
  512.00  0.036 
  513.00  0.034 
  514.00  0.033 
  515.00  0.031 
  516.00  0.030 
  517.00  0.029 
  518.00  0.028 
  519.00  0.028 
  520.00  0.027 
  521.00  0.027 
  522.00  0.027 
  523.00  0.027 
  524.00  0.027 
  525.00  0.027 
  526.00  0.027 
  527.00  0.028 
  528.00  0.029 
  529.00  0.030 
  530.00  0.032 
  531.00  0.034 
  532.00  0.037 
  533.00  0.040 
  534.00  0.045 
  535.00  0.050 
  536.00  0.056 
  537.00  0.062 
  538.00  0.067 
  539.00  0.069 
  540.00  0.067 
  541.00  0.064 
  542.00  0.059 
  543.00  0.055 
  544.00  0.051 
  545.00  0.049 
  546.00  0.047 
  547.00  0.047 
  548.00  0.047 
  549.00  0.048 
  550.00  0.049 
  551.00  0.050 
  552.00  0.053 
  553.00  0.055 
  554.00  0.059 
  555.00  0.062 
  556.00  0.067 
  557.00  0.073 
  558.00  0.079 
  559.00  0.087 
  560.00  0.096 
  561.00  0.106 
  562.00  0.119 
  563.00  0.134 
  564.00  0.153 
  565.00  0.176 
  566.00  0.205 
  567.00  0.240 
  568.00  0.285 
  569.00  0.341 
  570.00  0.412 
  571.00  0.502 
  572.00  0.611 
  573.00  0.735 
  574.00  0.861 
  575.00  0.961 
  576.00  1.000 
  577.00  0.963 
  578.00  0.864 
  579.00  0.738 
  580.00  0.613 
  581.00  0.504 
  582.00  0.414 
  583.00  0.343 
  584.00  0.286 
  585.00  0.241 
  586.00  0.206 
  587.00  0.177 
  588.00  0.154 
  589.00  0.135 
  590.00  0.120 
  591.00  0.107 
  592.00  0.097 
  593.00  0.088 
  594.00  0.080 
  595.00  0.074 
  596.00  0.068 
  597.00  0.064 
  598.00  0.060 
  599.00  0.057 
  600.00  0.054 
  601.00  0.053 
  602.00  0.051 
  603.00  0.050 
  604.00  0.050 
  605.00  0.050 
  606.00  0.051 
  607.00  0.053 
  608.00  0.056 
  609.00  0.060 
  610.00  0.065 
  611.00  0.073 
  612.00  0.082 
  613.00  0.095 
  614.00  0.111 
  615.00  0.129 
  616.00  0.148 
  617.00  0.164 
  618.00  0.171 
  619.00  0.166 
  620.00  0.151 
  621.00  0.131 
  622.00  0.110 
  623.00  0.093 
  624.00  0.078 
  625.00  0.066 
  626.00  0.056 
  627.00  0.049 
  628.00  0.043 
  629.00  0.038 
  630.00  0.034 
  631.00  0.030 
  632.00  0.028 
  633.00  0.026 
  634.00  0.024 
  635.00  0.022 
  636.00  0.021 
  637.00  0.019 
  638.00  0.018 
  639.00  0.017 
  640.00  0.016 
  641.00  0.015 
  642.00  0.014 
  643.00  0.013 
  644.00  0.013 
  645.00  0.012 
  646.00  0.011 
  647.00  0.011 
  648.00  0.010 
  649.00  0.010 
  650.00  0.010 
  651.00  0.009 
  652.00  0.009 
  653.00  0.009 
  654.00  0.008 
  655.00  0.008 
  656.00  0.008 
  657.00  0.008 
  658.00  0.007 
  659.00  0.007 
  660.00  0.007 
  661.00  0.007 
  662.00  0.007 
  663.00  0.006 
  664.00  0.006 
  665.00  0.006 
  666.00  0.006 
  667.00  0.006 
  668.00  0.006 
  669.00  0.006 
  670.00  0.005 
  671.00  0.005 
  672.00  0.005 
  673.00  0.005 
  674.00  0.005 
  675.00  0.005 
  676.00  0.005 
  677.00  0.005 
  678.00  0.005 
  679.00  0.005 
  680.00  0.004 
  681.00  0.004 
  682.00  0.004 
  683.00  0.004 
  684.00  0.004 
  685.00  0.004 
  686.00  0.004 
  687.00  0.004 
  688.00  0.004 
  689.00  0.004 
  690.00  0.004 
  691.00  0.004 
  692.00  0.004 
  693.00  0.004 
  694.00  0.004 
  695.00  0.004 
  696.00  0.004 
  697.00  0.004 
  698.00  0.004 
  699.00  0.004 
  700.00  0.004 
  701.00  0.004 
  702.00  0.004 
  703.00  0.004 
  704.00  0.004 
  705.00  0.004 
  706.00  0.004 
  707.00  0.004 
  708.00  0.004 
  709.00  0.004 
  710.00  0.004 
  711.00  0.004 
  712.00  0.004 
  713.00  0.004 
  714.00  0.004 
  715.00  0.004 
  716.00  0.004 
  717.00  0.004 
  718.00  0.005 
  719.00  0.005 
  720.00  0.005 
  721.00  0.005 
  722.00  0.006 
  723.00  0.006 
  724.00  0.007 
  725.00  0.007 
  726.00  0.008 
  727.00  0.009 
  728.00  0.011 
  729.00  0.012 
  730.00  0.014 
  731.00  0.017 
  732.00  0.020 
  733.00  0.024 
  734.00  0.027 
  735.00  0.029 
  736.00  0.029 
  737.00  0.027 
  738.00  0.024 
  739.00  0.021 
  740.00  0.017 
  741.00  0.015 
  742.00  0.013 
  743.00  0.011 
  744.00  0.009 
  745.00  0.008 
  746.00  0.008 
  747.00  0.007 
  748.00  0.006 
  749.00  0.006 
  750.00  0.006 
  751.00  0.005 
  752.00  0.005 
  753.00  0.005 
  754.00  0.005 
  755.00  0.005 
  756.00  0.005 
  757.00  0.005 
  758.00  0.006 
  759.00  0.006 
  760.00  0.006 
  761.00  0.007 
  762.00  0.007 
  763.00  0.008 
  764.00  0.009 
  765.00  0.011 
  766.00  0.013 
  767.00  0.015 
  768.00  0.017 
  769.00  0.020 
  770.00  0.021 
  771.00  0.022 
  772.00  0.021 
  773.00  0.019 
  774.00  0.016 
  775.00  0.014 
  776.00  0.011 
  777.00  0.010 
  778.00  0.008 
  779.00  0.007 
  780.00  0.006 
  781.00  0.006 
  782.00  0.005 
  783.00  0.005 
  784.00  0.004 
  785.00  0.004 
  786.00  0.004 
  787.00  0.004 
  788.00  0.003 
  789.00  0.003 
  790.00  0.003 
  791.00  0.003 
  792.00  0.003 
  793.00  0.003 
  794.00  0.003 
  795.00  0.003 
  796.00  0.003 
  797.00  0.003 
  798.00  0.003 
  799.00  0.003 
  800.00  0.003 
  801.00  0.003 
  802.00  0.003 
  803.00  0.004 
  804.00  0.004 
  805.00  0.004 
  806.00  0.005 
  807.00  0.005 
  808.00  0.006 
  809.00  0.006 
  810.00  0.006 
  811.00  0.006 
  812.00  0.006 
  813.00  0.005 
  814.00  0.005 
  815.00  0.004 
  816.00  0.004 
  817.00  0.004 
  818.00  0.003 
  819.00  0.003 
  820.00  0.003 
  821.00  0.003 
  822.00  0.003 
  823.00  0.003 
  824.00  0.003 
  825.00  0.003 
  826.00  0.004 
  827.00  0.004 
  828.00  0.004 
  829.00  0.004 
  830.00  0.004 
  831.00  0.005 
  832.00  0.005 
  833.00  0.005 
  834.00  0.006 
  835.00  0.007 
  836.00  0.007 
  837.00  0.008 
  838.00  0.009 
  839.00  0.011 
  840.00  0.012 
  841.00  0.015 
  842.00  0.018 
  843.00  0.021 
  844.00  0.026 
  845.00  0.031 
  846.00  0.036 
  847.00  0.041 
  848.00  0.043 
  849.00  0.043 
  850.00  0.039 
  851.00  0.034 
  852.00  0.029 
  853.00  0.024 
  854.00  0.020 
  855.00  0.016 
  856.00  0.014 
  857.00  0.012 
  858.00  0.010 
  859.00  0.009 
  860.00  0.008 
  861.00  0.007 
  862.00  0.006 
  863.00  0.006 
  864.00  0.005 
  865.00  0.005 
  866.00  0.005 
  867.00  0.004 
  868.00  0.004 
  869.00  0.004 
  870.00  0.004 
  871.00  0.004 
  872.00  0.004 
  873.00  0.004 
  874.00  0.004 
  875.00  0.005 
  876.00  0.005 
  877.00  0.005 
  878.00  0.006 
  879.00  0.006 
  880.00  0.006 
  881.00  0.005 
  882.00  0.005 
  883.00  0.004 
  884.00  0.004 
  885.00  0.003 
  886.00  0.003 
  887.00  0.003 
  888.00  0.003 
  889.00  0.002 
  890.00  0.002 
  891.00  0.002 
  892.00  0.002 
  893.00  0.002 
  894.00  0.002 
  895.00  0.002 
  896.00  0.002 
  897.00  0.002 
  898.00  0.002 
  899.00  0.002 
  900.00  0.002 
  901.00  0.002 
  902.00  0.002 
  903.00  0.002 
  904.00  0.002 
  905.00  0.002 
  906.00  0.002 
  907.00  0.002 
  908.00  0.003 
  909.00  0.003 
  910.00  0.003 
  911.00  0.003 
  912.00  0.003 
  913.00  0.004 
  914.00  0.004 
  915.00  0.005 
  916.00  0.005 
  917.00  0.006 
  918.00  0.007 
  919.00  0.009 
  920.00  0.010 
  921.00  0.012 
  922.00  0.015 
  923.00  0.017 
  924.00  0.019 
  925.00  0.019 
  926.00  0.018 
  927.00  0.016 
  928.00  0.014 
  929.00  0.012 
  930.00  0.010 
  931.00  0.008 
  932.00  0.007 
  933.00  0.006 
  934.00  0.005 
  935.00  0.005 
  936.00  0.004 
  937.00  0.004 
  938.00  0.003 
  939.00  0.003 
  940.00  0.003 
  941.00  0.003 
  942.00  0.003 
  943.00  0.003 
  944.00  0.003 
  945.00  0.003 
  946.00  0.003 
  947.00  0.003 
  948.00  0.003 
  949.00  0.003 
  950.00  0.003 
  951.00  0.003 
  952.00  0.004 
  953.00  0.004 
  954.00  0.005 
  955.00  0.005 
  956.00  0.006 
  957.00  0.008 
  958.00  0.009 
  959.00  0.010 
  960.00  0.011 
  961.00  0.011 
  962.00  0.010 
  963.00  0.009 
  964.00  0.008 
  965.00  0.007 
  966.00  0.006 
  967.00  0.005 
  968.00  0.004 
  969.00  0.004 
  970.00  0.003 
  971.00  0.003 
  972.00  0.003 
  973.00  0.002 
  974.00  0.002 
  975.00  0.002 
  976.00  0.002 
  977.00  0.002 
  978.00  0.002 
  979.00  0.002 
  980.00  0.002 
  981.00  0.001 
  982.00  0.001 
  983.00  0.001 
  984.00  0.001 
  985.00  0.001 
  986.00  0.001 
  987.00  0.002 
  988.00  0.002 
  989.00  0.002 
  990.00  0.002 
  991.00  0.002 
  992.00  0.002 
  993.00  0.002 
  994.00  0.002 
  995.00  0.002 
  996.00  0.002 
  997.00  0.001 
  998.00  0.001 
  999.00  0.001 
 1000.00  0.001 
 1001.00  0.001 
 1002.00  0.001 
 1003.00  0.001 
 1004.00  0.001 
 1005.00  0.001 
 1006.00  0.001 
 1007.00  0.001 
 1008.00  0.001 
 1009.00  0.001 
 1010.00  0.001 
 1011.00  0.001 
 1012.00  0.001 
 1013.00  0.001 
 1014.00  0.001 
 1015.00  0.001 
 1016.00  0.001 
 1017.00  0.001 
 1018.00  0.001 
 1019.00  0.001 
 1020.00  0.001 
 1021.00  0.001 
 1022.00  0.001 
 1023.00  0.001 
 1024.00  0.001 
 1025.00  0.001 
 1026.00  0.001 
 1027.00  0.001 
 1028.00  0.001 
 1029.00  0.001 
 1030.00  0.001 
 1031.00  0.001 
 1032.00  0.001 
 1033.00  0.001 
 1034.00  0.001 
 1035.00  0.001 
 1036.00  0.001 
 1037.00  0.001 
 1038.00  0.001 
 1039.00  0.001 
 1040.00  0.001 
 1041.00  0.001 
 1042.00  0.001 
 1043.00  0.001 
 1044.00  0.001 
 1045.00  0.001 
 1046.00  0.001 
 1047.00  0.001 
 1048.00  0.001 
 1049.00  0.001 
 1050.00  0.001 
 1051.00  0.001 
 1052.00  0.001 
 1053.00  0.001 
 1054.00  0.001 
 1055.00  0.001 
 1056.00  0.001 
 1057.00  0.001 
 1058.00  0.001 
 1059.00  0.001 
 1060.00  0.001 
 1061.00  0.001 
 1062.00  0.001 
 1063.00  0.001 
 1064.00  0.001 
 1065.00  0.001 
 1066.00  0.001 
 1067.00  0.001 
 1068.00  0.001 
 1069.00  0.001 
 1070.00  0.001 
 1071.00  0.001 
 1072.00  0.001 
 1073.00  0.001 
 1074.00  0.001 
 1075.00  0.001 
 1076.00  0.001 
 1077.00  0.001 
 1078.00  0.001 
 1079.00  0.001 
 1080.00  0.001 
 1081.00  0.001 
 1082.00  0.001 
 1083.00  0.001 
 1084.00  0.001 
 1085.00  0.001 
 1086.00  0.001 
 1087.00  0.001 
 1088.00  0.001 
 1089.00  0.001 
 1090.00  0.001 
 1091.00  0.001 
 1092.00  0.001 
 1093.00  0.001 
 1094.00  0.001 
 1095.00  0.001 
 1096.00  0.001 
 1097.00  0.001 
 1098.00  0.001 
 1099.00  0.001 
 1100.00  0.001 
 1101.00  0.001 
 1102.00  0.001 
 1103.00  0.001 
 1104.00  0.001 
 1105.00  0.001 
 1106.00  0.001 
 1107.00  0.001 
 1108.00  0.001 
 1109.00  0.001 
 1110.00  0.001 
 1111.00  0.001 
 1112.00  0.001 
 1113.00  0.001 
 1114.00  0.001 
 1115.00  0.001 
 1116.00  0.001 
 1117.00  0.001 
 1118.00  0.001 
 1119.00  0.001 
 1120.00  0.001 
 1121.00  0.001 
 1122.00  0.001 
 1123.00  0.001 
 1124.00  0.001 
 1125.00  0.001 
 1126.00  0.001 
 1127.00  0.001 
 1128.00  0.001 
 1129.00  0.001 
 1130.00  0.001 
 1131.00  0.001 
 1132.00  0.001 
 1133.00  0.001 
 1134.00  0.001 
 1135.00  0.001 
 1136.00  0.001 
 1137.00  0.001 
 1138.00  0.001 
 1139.00  0.001 
 1140.00  0.001 
 1141.00  0.001 
 1142.00  0.001 
 1143.00  0.001 
 1144.00  0.001 
 1145.00  0.001 
 1146.00  0.001 
 1147.00  0.001 
 1148.00  0.001 
 1149.00  0.001 
 1150.00  0.001 
 1151.00  0.001 
 1152.00  0.001 
 1153.00  0.001 
 1154.00  0.001 
 1155.00  0.001 
 1156.00  0.001 
 1157.00  0.001 
 1158.00  0.001 
 1159.00  0.001 
 1160.00  0.001 
 1161.00  0.001 
 1162.00  0.001 
 1163.00  0.001 
 1164.00  0.001 
 1165.00  0.001 
 1166.00  0.001 
 1167.00  0.001 
 1168.00  0.001 
 1169.00  0.001 
 1170.00  0.001 
 1171.00  0.001 
 1172.00  0.001 
 1173.00  0.001 
 1174.00  0.001 
 1175.00  0.001 
 1176.00  0.001 
 1177.00  0.001 
 1178.00  0.001 
 1179.00  0.001 
 1180.00  0.001 
 1181.00  0.001 
 1182.00  0.001 
 1183.00  0.001 
 1184.00  0.001 
 1185.00  0.001 
 1186.00  0.001 
 1187.00  0.001 
 1188.00  0.001 
 1189.00  0.001 
 1190.00  0.001 
 1191.00  0.001 
 1192.00  0.001 
 1193.00  0.001 
 1194.00  0.001 
 1195.00  0.001 
 1196.00  0.001 
 1197.00  0.002 
 1198.00  0.002 
 1199.00  0.002 
 1200.00  0.002 
 1201.00  0.002 
 1202.00  0.002 
 1203.00  0.002 
 1204.00  0.002 
 1205.00  0.002 
 1206.00  0.002 
 1207.00  0.002 
 1208.00  0.002 
 1209.00  0.003 
 1210.00  0.003 
 1211.00  0.003 
 1212.00  0.003 
 1213.00  0.003 
 1214.00  0.003 
 1215.00  0.003 
 1216.00  0.003 
 1217.00  0.003 
 1218.00  0.003 
 1219.00  0.003 
 1220.00  0.003 
 1221.00  0.003 
 1222.00  0.003 
 1223.00  0.003 
 1224.00  0.003 
 1225.00  0.003 
 1226.00  0.003 
 1227.00  0.003 
 1228.00  0.003 
 1229.00  0.003 
 1230.00  0.003 
 1231.00  0.003 
 1232.00  0.003 
 1233.00  0.003 
 1234.00  0.003 
 1235.00  0.003 
 1236.00  0.003 
 1237.00  0.003 
 1238.00  0.004 
 1239.00  0.004 
 1240.00  0.004 
 1241.00  0.004 
 1242.00  0.004 
 1243.00  0.004 
 1244.00  0.004 
 1245.00  0.004 
 1246.00  0.005 
 1247.00  0.005 
 1248.00  0.005 
 1249.00  0.005 
 1250.00  0.005 
 1251.00  0.006 
 1252.00  0.006 
 1253.00  0.006 
 1254.00  0.006 
 1255.00  0.007 
 1256.00  0.007 
 1257.00  0.007 
 1258.00  0.008 
 1259.00  0.008 
 1260.00  0.009 
 1261.00  0.009 
 1262.00  0.010 
 1263.00  0.010 
 1264.00  0.011 
 1265.00  0.012 
 1266.00  0.012 
 1267.00  0.013 
 1268.00  0.014 
 1269.00  0.015 
 1270.00  0.016 
 1271.00  0.018 
 1272.00  0.019 
 1273.00  0.021 
 1274.00  0.023 
 1275.00  0.025 
 1276.00  0.027 
 1277.00  0.030 
 1278.00  0.034 
 1279.00  0.038 
 1280.00  0.043 
 1281.00  0.048 
 1282.00  0.055 
 1283.00  0.064 
 1284.00  0.074 
 1285.00  0.087 
 1286.00  0.103 
 1287.00  0.123 
 1288.00  0.149 
 1289.00  0.181 
 1290.00  0.221 
 1291.00  0.268 
 1292.00  0.318 
 1293.00  0.362 
 1294.00  0.388 
 1295.00  0.384 
 1296.00  0.353 
 1297.00  0.306 
 1298.00  0.257 
 1299.00  0.211 
 1300.00  0.173 
 1301.00  0.143 
 1302.00  0.119 
 1303.00  0.099 
 1304.00  0.084 
 1305.00  0.072 
 1306.00  0.063 
 1307.00  0.055 
 1308.00  0.048 
 1309.00  0.043 
 1310.00  0.039 
 1311.00  0.035 
 1312.00  0.032 
 1313.00  0.030 
 1314.00  0.028 
 1315.00  0.026 
 1316.00  0.025 
 1317.00  0.025 
 1318.00  0.025 
 1319.00  0.025 
 1320.00  0.026 
 1321.00  0.026 
 1322.00  0.027 
 1323.00  0.026 
 1324.00  0.024 
 1325.00  0.022 
 1326.00  0.020 
 1327.00  0.018 
 1328.00  0.016 
 1329.00  0.014 
 1330.00  0.013 
 1331.00  0.012 
 1332.00  0.011 
 1333.00  0.010 
 1334.00  0.009 
 1335.00  0.009 
 1336.00  0.008 
 1337.00  0.008 
 1338.00  0.007 
 1339.00  0.007 
 1340.00  0.007 
 1341.00  0.006 
 1342.00  0.006 
 1343.00  0.006 
 1344.00  0.006 
 1345.00  0.006 
 1346.00  0.005 
 1347.00  0.005 
 1348.00  0.005 
 1349.00  0.005 
 1350.00  0.005 
 1351.00  0.005 
 1352.00  0.005 
 1353.00  0.005 
 1354.00  0.005 
 1355.00  0.005 
 1356.00  0.004 
 1357.00  0.004 
 1358.00  0.004 
 1359.00  0.004 
 1360.00  0.004 
 1361.00  0.004 
 1362.00  0.004 
 1363.00  0.004 
 1364.00  0.004 
 1365.00  0.004 
 1366.00  0.004 
 1367.00  0.004 
 1368.00  0.004 
 1369.00  0.004 
 1370.00  0.005 
 1371.00  0.005 
 1372.00  0.005 
 1373.00  0.005 
 1374.00  0.005 
 1375.00  0.005 
 1376.00  0.005 
 1377.00  0.005 
 1378.00  0.006 
 1379.00  0.006 
 1380.00  0.006 
 1381.00  0.006 
 1382.00  0.007 
 1383.00  0.007 
 1384.00  0.008 
 1385.00  0.008 
 1386.00  0.009 
 1387.00  0.009 
 1388.00  0.010 
 1389.00  0.011 
 1390.00  0.012 
 1391.00  0.013 
 1392.00  0.014 
 1393.00  0.016 
 1394.00  0.018 
 1395.00  0.020 
 1396.00  0.023 
 1397.00  0.027 
 1398.00  0.031 
 1399.00  0.037 
 1400.00  0.044 
 1401.00  0.053 
 1402.00  0.064 
 1403.00  0.078 
 1404.00  0.093 
 1405.00  0.108 
 1406.00  0.120 
 1407.00  0.124 
 1408.00  0.119 
 1409.00  0.106 
 1410.00  0.091 
 1411.00  0.077 
 1412.00  0.064 
 1413.00  0.055 
 1414.00  0.047 
 1415.00  0.042 
 1416.00  0.038 
 1417.00  0.035 
 1418.00  0.034 
 1419.00  0.034 
 1420.00  0.035 
 1421.00  0.036 
 1422.00  0.035 
 1423.00  0.034 
 1424.00  0.031 
 1425.00  0.027 
 1426.00  0.023 
 1427.00  0.020 
 1428.00  0.017 
 1429.00  0.015 
 1430.00  0.013 
 1431.00  0.012 
 1432.00  0.010 
 1433.00  0.009 
 1434.00  0.008 
 1435.00  0.008 
 1436.00  0.007 
 1437.00  0.007 
 1438.00  0.006 
 1439.00  0.006 
 1440.00  0.005 
 1441.00  0.005 
 1442.00  0.005 
 1443.00  0.004 
 1444.00  0.004 
 1445.00  0.004 
 1446.00  0.004 
 1447.00  0.004 
 1448.00  0.004 
 1449.00  0.003 
 1450.00  0.003 
 1451.00  0.003 
 1452.00  0.003 
 1453.00  0.003 
 1454.00  0.003 
 1455.00  0.003 
 1456.00  0.003 
 1457.00  0.003 
 1458.00  0.003 
 1459.00  0.002 
 1460.00  0.002 
 1461.00  0.002 
 1462.00  0.002 
 1463.00  0.002 
 1464.00  0.002 
 1465.00  0.002 
 1466.00  0.002 
 1467.00  0.002 
 1468.00  0.002 
 1469.00  0.002 
 1470.00  0.002 
 1471.00  0.002 
 1472.00  0.002 
 1473.00  0.002 
 1474.00  0.002 
 1475.00  0.002 
 1476.00  0.002 
 1477.00  0.002 
 1478.00  0.002 
 1479.00  0.002 
 1480.00  0.002 
 1481.00  0.002 
 1482.00  0.002 
 1483.00  0.002 
 1484.00  0.002 
 1485.00  0.002 
 1486.00  0.002 
 1487.00  0.002 
 1488.00  0.002 
 1489.00  0.002 
 1490.00  0.002 
 1491.00  0.002 
 1492.00  0.002 
 1493.00  0.002 
 1494.00  0.002 
 1495.00  0.002 
 1496.00  0.002 
 1497.00  0.002 
 1498.00  0.002 
 1499.00  0.002 
 1500.00  0.002 
 1501.00  0.002 
 1502.00  0.002 
 1503.00  0.002 
 1504.00  0.002 
 1505.00  0.002 
 1506.00  0.002 
 1507.00  0.002 
 1508.00  0.002 
 1509.00  0.002 
 1510.00  0.002 
 1511.00  0.002 
 1512.00  0.002 
 1513.00  0.002 
 1514.00  0.002 
 1515.00  0.002 
 1516.00  0.002 
 1517.00  0.002 
 1518.00  0.002 
 1519.00  0.002 
 1520.00  0.002 
 1521.00  0.002 
 1522.00  0.002 
 1523.00  0.002 
 1524.00  0.002 
 1525.00  0.002 
 1526.00  0.002 
 1527.00  0.002 
 1528.00  0.002 
 1529.00  0.002 
 1530.00  0.002 
 1531.00  0.002 
 1532.00  0.002 
 1533.00  0.002 
 1534.00  0.002 
 1535.00  0.002 
 1536.00  0.002 
 1537.00  0.002 
 1538.00  0.002 
 1539.00  0.002 
 1540.00  0.002 
 1541.00  0.002 
 1542.00  0.002 
 1543.00  0.002 
 1544.00  0.002 
 1545.00  0.002 
 1546.00  0.002 
 1547.00  0.002 
 1548.00  0.002 
 1549.00  0.002 
 1550.00  0.002 
 1551.00  0.002 
 1552.00  0.002 
 1553.00  0.002 
 1554.00  0.003 
 1555.00  0.003 
 1556.00  0.003 
 1557.00  0.003 
 1558.00  0.003 
 1559.00  0.003 
 1560.00  0.003 
 1561.00  0.003 
 1562.00  0.003 
 1563.00  0.003 
 1564.00  0.003 
 1565.00  0.003 
 1566.00  0.003 
 1567.00  0.003 
 1568.00  0.003 
 1569.00  0.003 
 1570.00  0.003 
 1571.00  0.004 
 1572.00  0.004 
 1573.00  0.004 
 1574.00  0.004 
 1575.00  0.004 
 1576.00  0.004 
 1577.00  0.004 
 1578.00  0.004 
 1579.00  0.004 
 1580.00  0.005 
 1581.00  0.005 
 1582.00  0.005 
 1583.00  0.005 
 1584.00  0.005 
 1585.00  0.005 
 1586.00  0.005 
 1587.00  0.006 
 1588.00  0.006 
 1589.00  0.006 
 1590.00  0.006 
 1591.00  0.006 
 1592.00  0.007 
 1593.00  0.007 
 1594.00  0.007 
 1595.00  0.007 
 1596.00  0.008 
 1597.00  0.008 
 1598.00  0.008 
 1599.00  0.009 
 1600.00  0.009 
 1601.00  0.010 
 1602.00  0.010 
 1603.00  0.011 
 1604.00  0.011 
 1605.00  0.012 
 1606.00  0.012 
 1607.00  0.013 
 1608.00  0.014 
 1609.00  0.014 
 1610.00  0.015 
 1611.00  0.016 
 1612.00  0.017 
 1613.00  0.018 
 1614.00  0.020 
 1615.00  0.021 
 1616.00  0.022 
 1617.00  0.024 
 1618.00  0.026 
 1619.00  0.028 
 1620.00  0.030 
 1621.00  0.033 
 1622.00  0.036 
 1623.00  0.039 
 1624.00  0.043 
 1625.00  0.048 
 1626.00  0.053 
 1627.00  0.059 
 1628.00  0.067 
 1629.00  0.075 
 1630.00  0.086 
 1631.00  0.098 
 1632.00  0.114 
 1633.00  0.133 
 1634.00  0.156 
 1635.00  0.186 
 1636.00  0.223 
 1637.00  0.270 
 1638.00  0.329 
 1639.00  0.402 
 1640.00  0.486 
 1641.00  0.572 
 1642.00  0.643 
 1643.00  0.675 
 1644.00  0.655 
 1645.00  0.592 
 1646.00  0.508 
 1647.00  0.422 
 1648.00  0.346 
 1649.00  0.284 
 1650.00  0.234 
 1651.00  0.194 
 1652.00  0.163 
 1653.00  0.138 
 1654.00  0.118 
 1655.00  0.102 
 1656.00  0.089 
 1657.00  0.078 
 1658.00  0.069 
 1659.00  0.061 
 1660.00  0.055 
 1661.00  0.049 
 1662.00  0.044 
 1663.00  0.040 
 1664.00  0.037 
 1665.00  0.034 
 1666.00  0.031 
 1667.00  0.029 
 1668.00  0.026 
 1669.00  0.024 
 1670.00  0.023 
 1671.00  0.021 
 1672.00  0.020 
 1673.00  0.019 
 1674.00  0.017 
 1675.00  0.016 
 1676.00  0.015 
 1677.00  0.015 
 1678.00  0.014 
 1679.00  0.013 
 1680.00  0.012 
 1681.00  0.012 
 1682.00  0.011 
 1683.00  0.011 
 1684.00  0.010 
 1685.00  0.010 
 1686.00  0.009 
 1687.00  0.009 
 1688.00  0.008 
 1689.00  0.008 
 1690.00  0.008 
 1691.00  0.007 
 1692.00  0.007 
 1693.00  0.007 
 1694.00  0.007 
 1695.00  0.006 
 1696.00  0.006 
 1697.00  0.006 
 1698.00  0.006 
 1699.00  0.006 
 1700.00  0.005 
 1701.00  0.005 
 1702.00  0.005 
 1703.00  0.005 
 1704.00  0.005 
 1705.00  0.005 
 1706.00  0.004 
 1707.00  0.004 
 1708.00  0.004 
 1709.00  0.004 
 1710.00  0.004 
 1711.00  0.004 
 1712.00  0.004 
 1713.00  0.004 
 1714.00  0.003 
 1715.00  0.003 
 1716.00  0.003 
 1717.00  0.003 
 1718.00  0.003 
 1719.00  0.003 
 1720.00  0.003 
 1721.00  0.003 
 1722.00  0.003 
 1723.00  0.003 
 1724.00  0.003 
 1725.00  0.003 
 1726.00  0.003 
 1727.00  0.003 
 1728.00  0.002 
 1729.00  0.002 
 1730.00  0.002 
 1731.00  0.002 
 1732.00  0.002 
 1733.00  0.002 
 1734.00  0.002 
 1735.00  0.002 
 1736.00  0.002 
 1737.00  0.002 
 1738.00  0.002 
 1739.00  0.002 
 1740.00  0.002 
 1741.00  0.002 
 1742.00  0.002 
 1743.00  0.002 
 1744.00  0.002 
 1745.00  0.002 
 1746.00  0.002 
 1747.00  0.002 
 1748.00  0.002 
 1749.00  0.002 
 1750.00  0.002 
 1751.00  0.002 
 1752.00  0.002 
 1753.00  0.002 
 1754.00  0.002 
 1755.00  0.001 
 1756.00  0.001 
 1757.00  0.001 
 1758.00  0.001 
 1759.00  0.001 
 1760.00  0.001 
 1761.00  0.001 
 1762.00  0.001 
 1763.00  0.001 
 1764.00  0.001 
 1765.00  0.001 
 1766.00  0.001 
 1767.00  0.001 
 1768.00  0.001 
 1769.00  0.001 
 1770.00  0.001 
 1771.00  0.001 
 1772.00  0.001 
 1773.00  0.001 
 1774.00  0.001 
 1775.00  0.001 
 1776.00  0.001 
 1777.00  0.001 
 1778.00  0.001 
 1779.00  0.001 
 1780.00  0.001 
 1781.00  0.001 
 1782.00  0.001 
 1783.00  0.001 
 1784.00  0.001 
 1785.00  0.001 
 1786.00  0.001 
 1787.00  0.001 
 1788.00  0.001 
 1789.00  0.001 
 1790.00  0.001 
 1791.00  0.001 
 1792.00  0.001 
 1793.00  0.001 
 1794.00  0.001 
 1795.00  0.001 
 1796.00  0.001 
 1797.00  0.001 
 1798.00  0.001 
 1799.00  0.001 
 1800.00  0.001 
 1801.00  0.001 
 1802.00  0.001 
 1803.00  0.001 
 1804.00  0.001 
 1805.00  0.001 
 1806.00  0.001 
 1807.00  0.001 
 1808.00  0.001 
 1809.00  0.001 
 1810.00  0.001 
 1811.00  0.001 
 1812.00  0.001 
 1813.00  0.001 
 1814.00  0.001 
 1815.00  0.001 
 1816.00  0.001 
 1817.00  0.001 
 1818.00  0.001 
 1819.00  0.001 
 1820.00  0.001 
 1821.00  0.001 
 1822.00  0.001 
 1823.00  0.001 
 1824.00  0.001 
 1825.00  0.001 
 1826.00  0.001 
 1827.00  0.001 
 1828.00  0.001 
 1829.00  0.001 
 1830.00  0.001 
 1831.00  0.001 
 1832.00  0.001 
 1833.00  0.001 
 1834.00  0.001 
 1835.00  0.001 
 1836.00  0.001 
 1837.00  0.001 
 1838.00  0.001 
 1839.00  0.001 
 1840.00  0.001 
 1841.00  0.001 
 1842.00  0.001 
 1843.00  0.001 
 1844.00  0.001 
 1845.00  0.001 
 1846.00  0.001 
 1847.00  0.001 
 1848.00  0.000 
 1849.00  0.000 
 1850.00  0.000 
 1851.00  0.000 
 1852.00  0.000 
 1853.00  0.000 
 1854.00  0.000 
 1855.00  0.000 
 1856.00  0.000 
 1857.00  0.000 
 1858.00  0.000 
 1859.00  0.000 
 1860.00  0.000 
 1861.00  0.000 
 1862.00  0.000 
 1863.00  0.000 
 1864.00  0.000 
 1865.00  0.000 
 1866.00  0.000 
 1867.00  0.000 
 1868.00  0.000 
 1869.00  0.000 
 1870.00  0.000 
 1871.00  0.000 
 1872.00  0.000 
 1873.00  0.000 
 1874.00  0.000 
 1875.00  0.000 
 1876.00  0.000 
 1877.00  0.000 
 1878.00  0.000 
 1879.00  0.000 
 1880.00  0.000 
 1881.00  0.000 
 1882.00  0.000 
 1883.00  0.000 
 1884.00  0.000 
 1885.00  0.000 
 1886.00  0.000 
 1887.00  0.000 
 1888.00  0.000 
 1889.00  0.000 
 1890.00  0.000 
 1891.00  0.000 
 1892.00  0.000 
 1893.00  0.000 
 1894.00  0.000 
 1895.00  0.000 
 1896.00  0.000 
 1897.00  0.000 
 1898.00  0.000 
 1899.00  0.000 
 1900.00  0.000 
 1901.00  0.000 
 1902.00  0.000 
 1903.00  0.000 
 1904.00  0.000 
 1905.00  0.000 
 1906.00  0.000 
 1907.00  0.000 
 1908.00  0.000 
 1909.00  0.000 
 1910.00  0.000 
 1911.00  0.000 
 1912.00  0.000 
 1913.00  0.000 
 1914.00  0.000 
 1915.00  0.000 
 1916.00  0.000 
 1917.00  0.000 
 1918.00  0.000 
 1919.00  0.000 
 1920.00  0.000 
 1921.00  0.000 
 1922.00  0.000 
 1923.00  0.000 
 1924.00  0.000 
 1925.00  0.000 
 1926.00  0.000 
 1927.00  0.000 
 1928.00  0.000 
 1929.00  0.000 
 1930.00  0.000 
 1931.00  0.000 
 1932.00  0.000 
 1933.00  0.000 
 1934.00  0.000 
 1935.00  0.000 
 1936.00  0.000 
 1937.00  0.000 
 1938.00  0.000 
 1939.00  0.000 
 1940.00  0.000 
 1941.00  0.000 
 1942.00  0.000 
 1943.00  0.000 
 1944.00  0.000 
 1945.00  0.000 
 1946.00  0.000 
 1947.00  0.000 
 1948.00  0.000 
 1949.00  0.000 
 1950.00  0.000 
 1951.00  0.000 
 1952.00  0.000 
 1953.00  0.000 
 1954.00  0.000 
 1955.00  0.000 
 1956.00  0.000 
 1957.00  0.000 
 1958.00  0.000 
 1959.00  0.000 
 1960.00  0.000 
 1961.00  0.000 
 1962.00  0.000 
 1963.00  0.000 
 1964.00  0.000 
 1965.00  0.000 
 1966.00  0.000 
 1967.00  0.000 
 1968.00  0.000 
 1969.00  0.000 
 1970.00  0.000 
 1971.00  0.000 
 1972.00  0.000 
 1973.00  0.000 
 1974.00  0.000 
 1975.00  0.000 
 1976.00  0.000 
 1977.00  0.000 
 1978.00  0.000 
 1979.00  0.000 
 1980.00  0.000 
 1981.00  0.000 
 1982.00  0.000 
 1983.00  0.000 
 1984.00  0.000 
 1985.00  0.000 
 1986.00  0.000 
 1987.00  0.000 
 1988.00  0.000 
 1989.00  0.000 
 1990.00  0.000 
 1991.00  0.000 
 1992.00  0.000 
 1993.00  0.000 
 1994.00  0.000 
 1995.00  0.000 
 1996.00  0.000 
 1997.00  0.000 
 1998.00  0.000 
 1999.00  0.000 
 2000.00  0.000 
 2001.00  0.000 
 2002.00  0.000 
 2003.00  0.000 
 2004.00  0.000 
 2005.00  0.000 
 2006.00  0.000 
 2007.00  0.000 
 2008.00  0.000 
 2009.00  0.000 
 2010.00  0.000 
 2011.00  0.000 
 2012.00  0.000 
 2013.00  0.000 
 2014.00  0.000 
 2015.00  0.000 
 2016.00  0.000 
 2017.00  0.000 
 2018.00  0.000 
 2019.00  0.000 
 2020.00  0.000 
 2021.00  0.000 
 2022.00  0.000 
 2023.00  0.000 
 2024.00  0.000 
 2025.00  0.000 
 2026.00  0.000 
 2027.00  0.000 
 2028.00  0.000 
 2029.00  0.000 
 2030.00  0.000 
 2031.00  0.000 
 2032.00  0.000 
 2033.00  0.000 
 2034.00  0.000 
 2035.00  0.000 
 2036.00  0.000 
 2037.00  0.000 
 2038.00  0.000 
 2039.00  0.000 
 2040.00  0.000 
 2041.00  0.000 
 2042.00  0.000 
 2043.00  0.000 
 2044.00  0.000 
 2045.00  0.000 
 2046.00  0.000 
 2047.00  0.000 
 2048.00  0.000 
 2049.00  0.000 
 2050.00  0.000 
 2051.00  0.000 
 2052.00  0.000 
 2053.00  0.000 
 2054.00  0.000 
 2055.00  0.000 
 2056.00  0.000 
 2057.00  0.000 
 2058.00  0.000 
 2059.00  0.000 
 2060.00  0.000 
 2061.00  0.000 
 2062.00  0.000 
 2063.00  0.000 
 2064.00  0.000 
 2065.00  0.000 
 2066.00  0.000 
 2067.00  0.000 
 2068.00  0.000 
 2069.00  0.000 
 2070.00  0.000 
 2071.00  0.000 
 2072.00  0.000 
 2073.00  0.000 
 2074.00  0.000 
 2075.00  0.000 
 2076.00  0.000 
 2077.00  0.000 
 2078.00  0.000 
 2079.00  0.000 
 2080.00  0.000 
 2081.00  0.000 
 2082.00  0.000 
 2083.00  0.000 
 2084.00  0.000 
 2085.00  0.000 
 2086.00  0.000 
 2087.00  0.000 
 2088.00  0.000 
 2089.00  0.000 
 2090.00  0.000 
 2091.00  0.000 
 2092.00  0.000 
 2093.00  0.000 
 2094.00  0.000 
 2095.00  0.000 
 2096.00  0.000 
 2097.00  0.000 
 2098.00  0.000 
 2099.00  0.000 
 2100.00  0.000 
 2101.00  0.000 
 2102.00  0.000 
 2103.00  0.000 
 2104.00  0.000 
 2105.00  0.000 
 2106.00  0.000 
 2107.00  0.000 
 2108.00  0.000 
 2109.00  0.000 
 2110.00  0.000 
 2111.00  0.000 
 2112.00  0.000 
 2113.00  0.000 
 2114.00  0.000 
 2115.00  0.000 
 2116.00  0.000 
 2117.00  0.000 
 2118.00  0.000 
 2119.00  0.000 
 2120.00  0.000 
 2121.00  0.000 
 2122.00  0.000 
 2123.00  0.000 
 2124.00  0.000 
 2125.00  0.000 
 2126.00  0.000 
 2127.00  0.000 
 2128.00  0.000 
 2129.00  0.000 
 2130.00  0.000 
 2131.00  0.000 
 2132.00  0.000 
 2133.00  0.000 
 2134.00  0.000 
 2135.00  0.000 
 2136.00  0.000 
 2137.00  0.000 
 2138.00  0.000 
 2139.00  0.000 
 2140.00  0.000 
 2141.00  0.000 
 2142.00  0.000 
 2143.00  0.000 
 2144.00  0.000 
 2145.00  0.000 
 2146.00  0.000 
 2147.00  0.000 
 2148.00  0.000 
 2149.00  0.000 
 2150.00  0.000 
 2151.00  0.000 
 2152.00  0.000 
 2153.00  0.000 
 2154.00  0.000 
 2155.00  0.000 
 2156.00  0.000 
 2157.00  0.000 
 2158.00  0.000 
 2159.00  0.000 
 2160.00  0.000 
 2161.00  0.000 
 2162.00  0.000 
 2163.00  0.000 
 2164.00  0.000 
 2165.00  0.000 
 2166.00  0.000 
 2167.00  0.000 
 2168.00  0.000 
 2169.00  0.000 
 2170.00  0.000 
 2171.00  0.000 
 2172.00  0.000 
 2173.00  0.000 
 2174.00  0.000 
 2175.00  0.000 
 2176.00  0.000 
 2177.00  0.000 
 2178.00  0.000 
 2179.00  0.000 
 2180.00  0.000 
 2181.00  0.000 
 2182.00  0.000 
 2183.00  0.000 
 2184.00  0.000 
 2185.00  0.000 
 2186.00  0.000 
 2187.00  0.000 
 2188.00  0.000 
 2189.00  0.000 
 2190.00  0.000 
 2191.00  0.000 
 2192.00  0.000 
 2193.00  0.000 
 2194.00  0.000 
 2195.00  0.000 
 2196.00  0.000 
 2197.00  0.000 
 2198.00  0.000 
 2199.00  0.000 
 2200.00  0.000 
 2201.00  0.000 
 2202.00  0.000 
 2203.00  0.000 
 2204.00  0.000 
 2205.00  0.000 
 2206.00  0.000 
 2207.00  0.000 
 2208.00  0.000 
 2209.00  0.000 
 2210.00  0.000 
 2211.00  0.000 
 2212.00  0.000 
 2213.00  0.000 
 2214.00  0.000 
 2215.00  0.000 
 2216.00  0.000 
 2217.00  0.000 
 2218.00  0.000 
 2219.00  0.000 
 2220.00  0.000 
 2221.00  0.000 
 2222.00  0.000 
 2223.00  0.000 
 2224.00  0.000 
 2225.00  0.000 
 2226.00  0.000 
 2227.00  0.000 
 2228.00  0.000 
 2229.00  0.000 
 2230.00  0.000 
 2231.00  0.000 
 2232.00  0.000 
 2233.00  0.000 
 2234.00  0.000 
 2235.00  0.000 
 2236.00  0.000 
 2237.00  0.000 
 2238.00  0.000 
 2239.00  0.000 
 2240.00  0.000 
 2241.00  0.000 
 2242.00  0.000 
 2243.00  0.000 
 2244.00  0.000 
 2245.00  0.000 
 2246.00  0.000 
 2247.00  0.000 
 2248.00  0.000 
 2249.00  0.000 
 2250.00  0.000 
 2251.00  0.000 
 2252.00  0.000 
 2253.00  0.000 
 2254.00  0.000 
 2255.00  0.000 
 2256.00  0.000 
 2257.00  0.000 
 2258.00  0.000 
 2259.00  0.000 
 2260.00  0.000 
 2261.00  0.000 
 2262.00  0.000 
 2263.00  0.000 
 2264.00  0.000 
 2265.00  0.000 
 2266.00  0.000 
 2267.00  0.000 
 2268.00  0.000 
 2269.00  0.000 
 2270.00  0.000 
 2271.00  0.000 
 2272.00  0.000 
 2273.00  0.000 
 2274.00  0.000 
 2275.00  0.000 
 2276.00  0.000 
 2277.00  0.000 
 2278.00  0.000 
 2279.00  0.000 
 2280.00  0.000 
 2281.00  0.000 
 2282.00  0.000 
 2283.00  0.000 
 2284.00  0.000 
 2285.00  0.000 
 2286.00  0.000 
 2287.00  0.000 
 2288.00  0.000 
 2289.00  0.000 
 2290.00  0.000 
 2291.00  0.000 
 2292.00  0.000 
 2293.00  0.000 
 2294.00  0.000 
 2295.00  0.000 
 2296.00  0.000 
 2297.00  0.000 
 2298.00  0.000 
 2299.00  0.000 
 2300.00  0.000 
 2301.00  0.000 
 2302.00  0.000 
 2303.00  0.000 
 2304.00  0.000 
 2305.00  0.000 
 2306.00  0.000 
 2307.00  0.000 
 2308.00  0.000 
 2309.00  0.000 
 2310.00  0.000 
 2311.00  0.000 
 2312.00  0.000 
 2313.00  0.000 
 2314.00  0.000 
 2315.00  0.000 
 2316.00  0.000 
 2317.00  0.000 
 2318.00  0.000 
 2319.00  0.000 
 2320.00  0.000 
 2321.00  0.000 
 2322.00  0.000 
 2323.00  0.000 
 2324.00  0.000 
 2325.00  0.000 
 2326.00  0.000 
 2327.00  0.000 
 2328.00  0.000 
 2329.00  0.000 
 2330.00  0.000 
 2331.00  0.000 
 2332.00  0.000 
 2333.00  0.000 
 2334.00  0.000 
 2335.00  0.000 
 2336.00  0.000 
 2337.00  0.000 
 2338.00  0.000 
 2339.00  0.000 
 2340.00  0.000 
 2341.00  0.000 
 2342.00  0.000 
 2343.00  0.000 
 2344.00  0.000 
 2345.00  0.000 
 2346.00  0.000 
 2347.00  0.000 
 2348.00  0.000 
 2349.00  0.000 
 2350.00  0.000 
 2351.00  0.000 
 2352.00  0.000 
 2353.00  0.000 
 2354.00  0.000 
 2355.00  0.000 
 2356.00  0.000 
 2357.00  0.000 
 2358.00  0.000 
 2359.00  0.000 
 2360.00  0.000 
 2361.00  0.000 
 2362.00  0.000 
 2363.00  0.000 
 2364.00  0.000 
 2365.00  0.000 
 2366.00  0.000 
 2367.00  0.000 
 2368.00  0.000 
 2369.00  0.000 
 2370.00  0.000 
 2371.00  0.000 
 2372.00  0.000 
 2373.00  0.000 
 2374.00  0.000 
 2375.00  0.000 
 2376.00  0.000 
 2377.00  0.000 
 2378.00  0.000 
 2379.00  0.000 
 2380.00  0.000 
 2381.00  0.000 
 2382.00  0.000 
 2383.00  0.000 
 2384.00  0.000 
 2385.00  0.000 
 2386.00  0.000 
 2387.00  0.000 
 2388.00  0.000 
 2389.00  0.000 
 2390.00  0.000 
 2391.00  0.000 
 2392.00  0.000 
 2393.00  0.000 
 2394.00  0.000 
 2395.00  0.000 
 2396.00  0.000 
 2397.00  0.000 
 2398.00  0.000 
 2399.00  0.000 
 2400.00  0.000 
 2401.00  0.000 
 2402.00  0.000 
 2403.00  0.000 
 2404.00  0.000 
 2405.00  0.000 
 2406.00  0.000 
 2407.00  0.000 
 2408.00  0.000 
 2409.00  0.000 
 2410.00  0.000 
 2411.00  0.000 
 2412.00  0.000 
 2413.00  0.000 
 2414.00  0.000 
 2415.00  0.000 
 2416.00  0.000 
 2417.00  0.000 
 2418.00  0.000 
 2419.00  0.000 
 2420.00  0.000 
 2421.00  0.000 
 2422.00  0.000 
 2423.00  0.000 
 2424.00  0.000 
 2425.00  0.000 
 2426.00  0.000 
 2427.00  0.000 
 2428.00  0.000 
 2429.00  0.000 
 2430.00  0.000 
 2431.00  0.000 
 2432.00  0.000 
 2433.00  0.000 
 2434.00  0.000 
 2435.00  0.000 
 2436.00  0.000 
 2437.00  0.000 
 2438.00  0.000 
 2439.00  0.000 
 2440.00  0.000 
 2441.00  0.000 
 2442.00  0.000 
 2443.00  0.000 
 2444.00  0.000 
 2445.00  0.000 
 2446.00  0.000 
 2447.00  0.000 
 2448.00  0.000 
 2449.00  0.000 
 2450.00  0.000 
 2451.00  0.000 
 2452.00  0.000 
 2453.00  0.000 
 2454.00  0.000 
 2455.00  0.000 
 2456.00  0.000 
 2457.00  0.000 
 2458.00  0.000 
 2459.00  0.000 
 2460.00  0.000 
 2461.00  0.000 
 2462.00  0.000 
 2463.00  0.000 
 2464.00  0.000 
 2465.00  0.000 
 2466.00  0.000 
 2467.00  0.000 
 2468.00  0.000 
 2469.00  0.000 
 2470.00  0.000 
 2471.00  0.000 
 2472.00  0.000 
 2473.00  0.000 
 2474.00  0.000 
 2475.00  0.000 
 2476.00  0.000 
 2477.00  0.000 
 2478.00  0.000 
 2479.00  0.000 
 2480.00  0.000 
 2481.00  0.000 
 2482.00  0.000 
 2483.00  0.000 
 2484.00  0.000 
 2485.00  0.000 
 2486.00  0.000 
 2487.00  0.000 
 2488.00  0.000 
 2489.00  0.000 
 2490.00  0.000 
 2491.00  0.000 
 2492.00  0.000 
 2493.00  0.000 
 2494.00  0.000 
 2495.00  0.000 
 2496.00  0.000 
 2497.00  0.000 
 2498.00  0.000 
 2499.00  0.000 
 2500.00  0.000 
 2501.00  0.000 
 2502.00  0.000 
 2503.00  0.000 
 2504.00  0.000 
 2505.00  0.000 
 2506.00  0.000 
 2507.00  0.000 
 2508.00  0.000 
 2509.00  0.000 
 2510.00  0.000 
 2511.00  0.000 
 2512.00  0.000 
 2513.00  0.000 
 2514.00  0.000 
 2515.00  0.000 
 2516.00  0.000 
 2517.00  0.000 
 2518.00  0.000 
 2519.00  0.000 
 2520.00  0.000 
 2521.00  0.000 
 2522.00  0.000 
 2523.00  0.000 
 2524.00  0.000 
 2525.00  0.000 
 2526.00  0.000 
 2527.00  0.000 
 2528.00  0.000 
 2529.00  0.000 
 2530.00  0.000 
 2531.00  0.000 
 2532.00  0.000 
 2533.00  0.000 
 2534.00  0.000 
 2535.00  0.000 
 2536.00  0.000 
 2537.00  0.000 
 2538.00  0.000 
 2539.00  0.000 
 2540.00  0.000 
 2541.00  0.000 
 2542.00  0.000 
 2543.00  0.000 
 2544.00  0.000 
 2545.00  0.000 
 2546.00  0.000 
 2547.00  0.000 
 2548.00  0.000 
 2549.00  0.000 
 2550.00  0.000 
 2551.00  0.000 
 2552.00  0.000 
 2553.00  0.000 
 2554.00  0.000 
 2555.00  0.000 
 2556.00  0.000 
 2557.00  0.000 
 2558.00  0.000 
 2559.00  0.000 
 2560.00  0.000 
 2561.00  0.000 
 2562.00  0.000 
 2563.00  0.000 
 2564.00  0.000 
 2565.00  0.000 
 2566.00  0.000 
 2567.00  0.000 
 2568.00  0.000 
 2569.00  0.000 
 2570.00  0.000 
 2571.00  0.000 
 2572.00  0.000 
 2573.00  0.000 
 2574.00  0.000 
 2575.00  0.000 
 2576.00  0.000 
 2577.00  0.000 
 2578.00  0.000 
 2579.00  0.000 
 2580.00  0.000 
 2581.00  0.000 
 2582.00  0.000 
 2583.00  0.000 
 2584.00  0.000 
 2585.00  0.000 
 2586.00  0.000 
 2587.00  0.000 
 2588.00  0.000 
 2589.00  0.000 
 2590.00  0.000 
 2591.00  0.000 
 2592.00  0.000 
 2593.00  0.000 
 2594.00  0.000 
 2595.00  0.000 
 2596.00  0.000 
 2597.00  0.000 
 2598.00  0.000 
 2599.00  0.000 
 2600.00  0.000 
 2601.00  0.000 
 2602.00  0.000 
 2603.00  0.000 
 2604.00  0.000 
 2605.00  0.000 
 2606.00  0.000 
 2607.00  0.000 
 2608.00  0.000 
 2609.00  0.000 
 2610.00  0.000 
 2611.00  0.000 
 2612.00  0.000 
 2613.00  0.000 
 2614.00  0.000 
 2615.00  0.000 
 2616.00  0.000 
 2617.00  0.000 
 2618.00  0.000 
 2619.00  0.000 
 2620.00  0.000 
 2621.00  0.000 
 2622.00  0.000 
 2623.00  0.000 
 2624.00  0.000 
 2625.00  0.000 
 2626.00  0.000 
 2627.00  0.000 
 2628.00  0.000 
 2629.00  0.000 
 2630.00  0.000 
 2631.00  0.000 
 2632.00  0.000 
 2633.00  0.000 
 2634.00  0.000 
 2635.00  0.000 
 2636.00  0.000 
 2637.00  0.000 
 2638.00  0.000 
 2639.00  0.000 
 2640.00  0.000 
 2641.00  0.000 
 2642.00  0.000 
 2643.00  0.000 
 2644.00  0.000 
 2645.00  0.000 
 2646.00  0.000 
 2647.00  0.000 
 2648.00  0.000 
 2649.00  0.000 
 2650.00  0.000 
 2651.00  0.000 
 2652.00  0.000 
 2653.00  0.000 
 2654.00  0.000 
 2655.00  0.000 
 2656.00  0.000 
 2657.00  0.000 
 2658.00  0.000 
 2659.00  0.000 
 2660.00  0.000 
 2661.00  0.000 
 2662.00  0.000 
 2663.00  0.000 
 2664.00  0.000 
 2665.00  0.000 
 2666.00  0.000 
 2667.00  0.000 
 2668.00  0.000 
 2669.00  0.000 
 2670.00  0.000 
 2671.00  0.000 
 2672.00  0.000 
 2673.00  0.000 
 2674.00  0.000 
 2675.00  0.000 
 2676.00  0.000 
 2677.00  0.000 
 2678.00  0.000 
 2679.00  0.000 
 2680.00  0.000 
 2681.00  0.000 
 2682.00  0.000 
 2683.00  0.000 
 2684.00  0.000 
 2685.00  0.000 
 2686.00  0.000 
 2687.00  0.000 
 2688.00  0.000 
 2689.00  0.000 
 2690.00  0.000 
 2691.00  0.000 
 2692.00  0.000 
 2693.00  0.000 
 2694.00  0.000 
 2695.00  0.000 
 2696.00  0.000 
 2697.00  0.000 
 2698.00  0.000 
 2699.00  0.000 
 2700.00  0.000 
 2701.00  0.000 
 2702.00  0.000 
 2703.00  0.000 
 2704.00  0.000 
 2705.00  0.000 
 2706.00  0.000 
 2707.00  0.000 
 2708.00  0.000 
 2709.00  0.000 
 2710.00  0.000 
 2711.00  0.000 
 2712.00  0.000 
 2713.00  0.000 
 2714.00  0.000 
 2715.00  0.000 
 2716.00  0.000 
 2717.00  0.000 
 2718.00  0.000 
 2719.00  0.000 
 2720.00  0.000 
 2721.00  0.000 
 2722.00  0.000 
 2723.00  0.000 
 2724.00  0.000 
 2725.00  0.000 
 2726.00  0.000 
 2727.00  0.000 
 2728.00  0.000 
 2729.00  0.000 
 2730.00  0.000 
 2731.00  0.000 
 2732.00  0.000 
 2733.00  0.000 
 2734.00  0.000 
 2735.00  0.000 
 2736.00  0.000 
 2737.00  0.000 
 2738.00  0.000 
 2739.00  0.000 
 2740.00  0.000 
 2741.00  0.000 
 2742.00  0.000 
 2743.00  0.000 
 2744.00  0.000 
 2745.00  0.000 
 2746.00  0.000 
 2747.00  0.000 
 2748.00  0.000 
 2749.00  0.000 
 2750.00  0.000 
 2751.00  0.000 
 2752.00  0.000 
 2753.00  0.000 
 2754.00  0.000 
 2755.00  0.000 
 2756.00  0.000 
 2757.00  0.000 
 2758.00  0.000 
 2759.00  0.000 
 2760.00  0.000 
 2761.00  0.000 
 2762.00  0.000 
 2763.00  0.000 
 2764.00  0.000 
 2765.00  0.000 
 2766.00  0.000 
 2767.00  0.000 
 2768.00  0.000 
 2769.00  0.000 
 2770.00  0.000 
 2771.00  0.000 
 2772.00  0.000 
 2773.00  0.000 
 2774.00  0.000 
 2775.00  0.000 
 2776.00  0.000 
 2777.00  0.000 
 2778.00  0.000 
 2779.00  0.000 
 2780.00  0.000 
 2781.00  0.000 
 2782.00  0.000 
 2783.00  0.000 
 2784.00  0.000 
 2785.00  0.000 
 2786.00  0.000 
 2787.00  0.000 
 2788.00  0.000 
 2789.00  0.000 
 2790.00  0.000 
 2791.00  0.000 
 2792.00  0.000 
 2793.00  0.000 
 2794.00  0.000 
 2795.00  0.000 
 2796.00  0.000 
 2797.00  0.000 
 2798.00  0.000 
 2799.00  0.000 
 2800.00  0.000 
 2801.00  0.000 
 2802.00  0.000 
 2803.00  0.000 
 2804.00  0.000 
 2805.00  0.000 
 2806.00  0.000 
 2807.00  0.000 
 2808.00  0.000 
 2809.00  0.000 
 2810.00  0.000 
 2811.00  0.000 
 2812.00  0.000 
 2813.00  0.000 
 2814.00  0.000 
 2815.00  0.000 
 2816.00  0.000 
 2817.00  0.000 
 2818.00  0.000 
 2819.00  0.000 
 2820.00  0.000 
 2821.00  0.000 
 2822.00  0.000 
 2823.00  0.000 
 2824.00  0.000 
 2825.00  0.000 
 2826.00  0.000 
 2827.00  0.000 
 2828.00  0.000 
 2829.00  0.000 
 2830.00  0.000 
 2831.00  0.000 
 2832.00  0.000 
 2833.00  0.000 
 2834.00  0.000 
 2835.00  0.000 
 2836.00  0.000 
 2837.00  0.000 
 2838.00  0.000 
 2839.00  0.000 
 2840.00  0.000 
 2841.00  0.000 
 2842.00  0.000 
 2843.00  0.000 
 2844.00  0.000 
 2845.00  0.000 
 2846.00  0.000 
 2847.00  0.000 
 2848.00  0.000 
 2849.00  0.000 
 2850.00  0.000 
 2851.00  0.000 
 2852.00  0.000 
 2853.00  0.000 
 2854.00  0.000 
 2855.00  0.000 
 2856.00  0.000 
 2857.00  0.000 
 2858.00  0.000 
 2859.00  0.000 
 2860.00  0.000 
 2861.00  0.000 
 2862.00  0.000 
 2863.00  0.000 
 2864.00  0.000 
 2865.00  0.000 
 2866.00  0.000 
 2867.00  0.000 
 2868.00  0.000 
 2869.00  0.000 
 2870.00  0.000 
 2871.00  0.000 
 2872.00  0.000 
 2873.00  0.000 
 2874.00  0.000 
 2875.00  0.000 
 2876.00  0.000 
 2877.00  0.000 
 2878.00  0.000 
 2879.00  0.000 
 2880.00  0.000 
 2881.00  0.000 
 2882.00  0.000 
 2883.00  0.000 
 2884.00  0.000 
 2885.00  0.001 
 2886.00  0.001 
 2887.00  0.001 
 2888.00  0.001 
 2889.00  0.001 
 2890.00  0.001 
 2891.00  0.001 
 2892.00  0.001 
 2893.00  0.001 
 2894.00  0.001 
 2895.00  0.001 
 2896.00  0.001 
 2897.00  0.001 
 2898.00  0.001 
 2899.00  0.001 
 2900.00  0.001 
 2901.00  0.001 
 2902.00  0.001 
 2903.00  0.001 
 2904.00  0.001 
 2905.00  0.001 
 2906.00  0.001 
 2907.00  0.001 
 2908.00  0.001 
 2909.00  0.001 
 2910.00  0.001 
 2911.00  0.001 
 2912.00  0.001 
 2913.00  0.002 
 2914.00  0.002 
 2915.00  0.002 
 2916.00  0.002 
 2917.00  0.002 
 2918.00  0.002 
 2919.00  0.002 
 2920.00  0.002 
 2921.00  0.003 
 2922.00  0.003 
 2923.00  0.003 
 2924.00  0.003 
 2925.00  0.004 
 2926.00  0.004 
 2927.00  0.004 
 2928.00  0.005 
 2929.00  0.005 
 2930.00  0.006 
 2931.00  0.006 
 2932.00  0.007 
 2933.00  0.008 
 2934.00  0.009 
 2935.00  0.010 
 2936.00  0.012 
 2937.00  0.014 
 2938.00  0.016 
 2939.00  0.019 
 2940.00  0.022 
 2941.00  0.027 
 2942.00  0.033 
 2943.00  0.040 
 2944.00  0.049 
 2945.00  0.058 
 2946.00  0.067 
 2947.00  0.074 
 2948.00  0.075 
 2949.00  0.071 
 2950.00  0.062 
 2951.00  0.053 
 2952.00  0.043 
 2953.00  0.036 
 2954.00  0.029 
 2955.00  0.024 
 2956.00  0.020 
 2957.00  0.017 
 2958.00  0.014 
 2959.00  0.012 
 2960.00  0.011 
 2961.00  0.009 
 2962.00  0.008 
 2963.00  0.007 
 2964.00  0.007 
 2965.00  0.006 
 2966.00  0.005 
 2967.00  0.005 
 2968.00  0.004 
 2969.00  0.004 
 2970.00  0.004 
 2971.00  0.003 
 2972.00  0.003 
 2973.00  0.003 
 2974.00  0.003 
 2975.00  0.002 
 2976.00  0.002 
 2977.00  0.002 
 2978.00  0.002 
 2979.00  0.002 
 2980.00  0.002 
 2981.00  0.002 
 2982.00  0.002 
 2983.00  0.002 
 2984.00  0.001 
 2985.00  0.001 
 2986.00  0.001 
 2987.00  0.001 
 2988.00  0.001 
 2989.00  0.001 
 2990.00  0.001 
 2991.00  0.001 
 2992.00  0.001 
 2993.00  0.001 
 2994.00  0.001 
 2995.00  0.001 
 2996.00  0.001 
 2997.00  0.001 
 2998.00  0.001 
 2999.00  0.001 
 3000.00  0.001 
 3001.00  0.001 
 3002.00  0.001 
 3003.00  0.001 
 3004.00  0.001 
 3005.00  0.001 
 3006.00  0.001 
 3007.00  0.001 
 3008.00  0.001 
 3009.00  0.001 
 3010.00  0.001 
 3011.00  0.000 
 3012.00  0.000 
 3013.00  0.000 
 3014.00  0.000 
 3015.00  0.000 
 3016.00  0.000 
 3017.00  0.000 
 3018.00  0.000 
 3019.00  0.000 
 3020.00  0.000 
 3021.00  0.000 
 3022.00  0.000 
 3023.00  0.000 
 3024.00  0.000 
 3025.00  0.000 
 3026.00  0.000 
 3027.00  0.000 
 3028.00  0.000 
 3029.00  0.000 
 3030.00  0.000 
 3031.00  0.000 
 3032.00  0.000 
 3033.00  0.000 
 3034.00  0.000 
 3035.00  0.000 
 3036.00  0.000 
 3037.00  0.000 
 3038.00  0.000 
 3039.00  0.000 
 3040.00  0.000 
 3041.00  0.000 
 3042.00  0.000 
 3043.00  0.000 
 3044.00  0.000 
 3045.00  0.000 
 3046.00  0.000 
 3047.00  0.000 
 3048.00  0.000 
 3049.00  0.000 
 3050.00  0.000 
 3051.00  0.000 
 3052.00  0.000 
 3053.00  0.000 
 3054.00  0.000 
 3055.00  0.000 
 3056.00  0.000 
 3057.00  0.000 
 3058.00  0.000 
 3059.00  0.000 
 3060.00  0.000 
 3061.00  0.000 
 3062.00  0.000 
 3063.00  0.000 
 3064.00  0.000 
 3065.00  0.000 
 3066.00  0.000 
 3067.00  0.000 
 3068.00  0.000 
 3069.00  0.000 
 3070.00  0.000 
 3071.00  0.000 
 3072.00  0.000 
 3073.00  0.000 
 3074.00  0.000 
 3075.00  0.000 
 3076.00  0.000 
 3077.00  0.000 
 3078.00  0.000 
 3079.00  0.000 
 3080.00  0.000 
 3081.00  0.000 
 3082.00  0.000 
 3083.00  0.000 
 3084.00  0.000 
 3085.00  0.000 
 3086.00  0.000 
 3087.00  0.000 
 3088.00  0.000 
 3089.00  0.000 
 3090.00  0.000 
 3091.00  0.000 
 3092.00  0.000 
 3093.00  0.000 
 3094.00  0.000 
 3095.00  0.000 
 3096.00  0.000 
 3097.00  0.000 
 3098.00  0.000 
 3099.00  0.000 
 3100.00  0.000 
 3101.00  0.000 
 3102.00  0.000 
 3103.00  0.000 
 3104.00  0.000 
 3105.00  0.000 
 3106.00  0.000 
 3107.00  0.000 
 3108.00  0.000 
 3109.00  0.000 
 3110.00  0.000 
 3111.00  0.000 
 3112.00  0.000 
 3113.00  0.000 
 3114.00  0.000 
 3115.00  0.000 
 3116.00  0.000 
 3117.00  0.000 
 3118.00  0.000 
 3119.00  0.000 
 3120.00  0.000 
 3121.00  0.000 
 3122.00  0.000 
 3123.00  0.000 
 3124.00  0.000 
 3125.00  0.000 
 3126.00  0.000 
 3127.00  0.000 
 3128.00  0.000 
 3129.00  0.000 
 3130.00  0.000 
 3131.00  0.000 
 3132.00  0.000 
 3133.00  0.000 
 3134.00  0.000 
 3135.00  0.000 
 3136.00  0.000 
 3137.00  0.000 
 3138.00  0.000 
 3139.00  0.000 
 3140.00  0.000 
 3141.00  0.000 
 3142.00  0.000 
 3143.00  0.000 
 3144.00  0.000 
 3145.00  0.000 
 3146.00  0.000 
 3147.00  0.000 
 3148.00  0.000 
 3149.00  0.000 
 3150.00  0.000 
 3151.00  0.000 
 3152.00  0.000 
 3153.00  0.000 
 3154.00  0.000 
 3155.00  0.000 
 3156.00  0.000 
 3157.00  0.000 
 3158.00  0.000 
 3159.00  0.000 
 3160.00  0.000 
 3161.00  0.000 
 3162.00  0.000 
 3163.00  0.000 
 3164.00  0.000 
 3165.00  0.000 
 3166.00  0.000 
 3167.00  0.000 
 3168.00  0.000 
 3169.00  0.000 
 3170.00  0.000 
 3171.00  0.000 
 3172.00  0.000 
 3173.00  0.000 
 3174.00  0.000 
 3175.00  0.000 
 3176.00  0.000 
 3177.00  0.000 
 3178.00  0.000 
 3179.00  0.000 
 3180.00  0.000 
 3181.00  0.000 
 3182.00  0.000 
 3183.00  0.000 
 3184.00  0.000 
 3185.00  0.000 
 3186.00  0.000 
 3187.00  0.000 
 3188.00  0.000 
 3189.00  0.000 
 3190.00  0.000 
 3191.00  0.000 
 3192.00  0.000 
 3193.00  0.000 
 3194.00  0.000 
 3195.00  0.000 
 3196.00  0.000 
 3197.00  0.000 
 3198.00  0.000 
 3199.00  0.000 
 3200.00  0.000 
 3201.00  0.000 
 3202.00  0.000 
 3203.00  0.000 
 3204.00  0.000 
 3205.00  0.000 
 3206.00  0.000 
 3207.00  0.000 
 3208.00  0.000 
 3209.00  0.000 
 3210.00  0.000 
 3211.00  0.000 
 3212.00  0.000 
 3213.00  0.000 
 3214.00  0.000 
 3215.00  0.000 
 3216.00  0.000 
 3217.00  0.000 
 3218.00  0.000 
 3219.00  0.000 
 3220.00  0.000 
 3221.00  0.000 
 3222.00  0.000 
 3223.00  0.000 
 3224.00  0.000 
 3225.00  0.000 
 3226.00  0.000 
 3227.00  0.000 
 3228.00  0.000 
 3229.00  0.000 
 3230.00  0.000 
 3231.00  0.000 
 3232.00  0.000 
 3233.00  0.000 
 3234.00  0.000 
 3235.00  0.000 
 3236.00  0.000 
 3237.00  0.000 
 3238.00  0.000 
 3239.00  0.000 
 3240.00  0.000 
 3241.00  0.000 
 3242.00  0.000 
 3243.00  0.000 
 3244.00  0.000 
 3245.00  0.000 
 3246.00  0.000 
 3247.00  0.000 
 3248.00  0.000 
 3249.00  0.000 
 3250.00  0.000 
 3251.00  0.000 
 3252.00  0.000 
 3253.00  0.000 
 3254.00  0.000 
 3255.00  0.000 
 3256.00  0.000 
 3257.00  0.000 
 3258.00  0.000 
 3259.00  0.000 
 3260.00  0.000 
 3261.00  0.000 
 3262.00  0.000 
 3263.00  0.000 
 3264.00  0.000 
 3265.00  0.000 
 3266.00  0.000 
 3267.00  0.000 
 3268.00  0.000 
 3269.00  0.000 
 3270.00  0.000 
 3271.00  0.000 
 3272.00  0.000 
 3273.00  0.000 
 3274.00  0.000 
 3275.00  0.000 
 3276.00  0.000 
 3277.00  0.000 
 3278.00  0.000 
 3279.00  0.000 
 3280.00  0.000 
 3281.00  0.000 
 3282.00  0.000 
 3283.00  0.000 
 3284.00  0.000 
 3285.00  0.000 
 3286.00  0.000 
 3287.00  0.000 
 3288.00  0.000 
 3289.00  0.000 
 3290.00  0.000 
 3291.00  0.000 
 3292.00  0.000 
 3293.00  0.000 
 3294.00  0.000 
 3295.00  0.000 
 3296.00  0.000 
 3297.00  0.000 
 3298.00  0.000 
 3299.00  0.000 
 3300.00  0.000 
 3301.00  0.000 
 3302.00  0.000 
 3303.00  0.000 
 3304.00  0.000 
 3305.00  0.000 
 3306.00  0.000 
 3307.00  0.000 
 3308.00  0.000 
 3309.00  0.000 
 3310.00  0.000 
 3311.00  0.000 
 3312.00  0.000 
 3313.00  0.000 
 3314.00  0.000 
 3315.00  0.000 
 3316.00  0.000 
 3317.00  0.000 
 3318.00  0.000 
 3319.00  0.000 
 3320.00  0.000 
 3321.00  0.000 
 3322.00  0.000 
 3323.00  0.000 
 3324.00  0.000 
 3325.00  0.000 
 3326.00  0.000 
 3327.00  0.000 
 3328.00  0.000 
 3329.00  0.000 
 3330.00  0.000 
 3331.00  0.000 
 3332.00  0.000 
 3333.00  0.000 
 3334.00  0.000 
 3335.00  0.000 
 3336.00  0.000 
 3337.00  0.000 
 3338.00  0.000 
 3339.00  0.000 
 3340.00  0.000 
 3341.00  0.000 
 3342.00  0.000 
 3343.00  0.000 
 3344.00  0.000 
 3345.00  0.000 
 3346.00  0.000 
 3347.00  0.000 
 3348.00  0.000 
 3349.00  0.000 
 3350.00  0.000 
 3351.00  0.000 
 3352.00  0.000 
 3353.00  0.000 
 3354.00  0.000 
 3355.00  0.000 
 3356.00  0.000 
 3357.00  0.000 
 3358.00  0.000 
 3359.00  0.000 
 3360.00  0.000 
 3361.00  0.000 
 3362.00  0.000 
 3363.00  0.000 
 3364.00  0.000 
 3365.00  0.000 
 3366.00  0.000 
 3367.00  0.000 
 3368.00  0.000 
 3369.00  0.000 
 3370.00  0.000 
 3371.00  0.000 
 3372.00  0.000 
 3373.00  0.000 
 3374.00  0.000 
 3375.00  0.000 
 3376.00  0.000 
 3377.00  0.000 
 3378.00  0.000 
 3379.00  0.000 
 3380.00  0.000 
 3381.00  0.000 
 3382.00  0.000 
 3383.00  0.000 
 3384.00  0.000 
 3385.00  0.000 
 3386.00  0.000 
 3387.00  0.000 
 3388.00  0.000 
 3389.00  0.000 
 3390.00  0.000 
 3391.00  0.000 
 3392.00  0.000 
 3393.00  0.000 
 3394.00  0.000 
 3395.00  0.000 
 3396.00  0.000 
 3397.00  0.000 
 3398.00  0.000 
 3399.00  0.000 
 3400.00  0.000 
 3401.00  0.000 
 3402.00  0.000 
 3403.00  0.000 
 3404.00  0.000 
 3405.00  0.000 
 3406.00  0.000 
 3407.00  0.000 
 3408.00  0.000 
 3409.00  0.000 
 3410.00  0.000 
 3411.00  0.000 
 3412.00  0.000 
 3413.00  0.000 
 3414.00  0.000 
 3415.00  0.000 
 3416.00  0.000 
 3417.00  0.000 
 3418.00  0.000 
 3419.00  0.000 
 3420.00  0.000 
 3421.00  0.000 
 3422.00  0.000 
 3423.00  0.000 
 3424.00  0.000 
 3425.00  0.000 
 3426.00  0.000 
 3427.00  0.000 
 3428.00  0.000 
 3429.00  0.000 
 3430.00  0.000 
 3431.00  0.000 
 3432.00  0.000 
 3433.00  0.000 
 3434.00  0.000 
 3435.00  0.000 
 3436.00  0.000 
 3437.00  0.000 
 3438.00  0.000 
 3439.00  0.000 
 3440.00  0.000 
 3441.00  0.000 
 3442.00  0.000 
 3443.00  0.000 
 3444.00  0.000 
 3445.00  0.000 
 3446.00  0.000 
 3447.00  0.000 
 3448.00  0.000 
 3449.00  0.000 
 3450.00  0.000 
 3451.00  0.000 
 3452.00  0.000 
 3453.00  0.000 
 3454.00  0.000 
 3455.00  0.000 
 3456.00  0.000 
 3457.00  0.000 
 3458.00  0.000 
 3459.00  0.000 
 3460.00  0.000 
 3461.00  0.000 
 3462.00  0.000 
 3463.00  0.000 
 3464.00  0.000 
 3465.00  0.000 
 3466.00  0.000 
 3467.00  0.000 
 3468.00  0.000 
 3469.00  0.000 
 3470.00  0.000 
 3471.00  0.000 
 3472.00  0.000 
 3473.00  0.000 
 3474.00  0.000 
 3475.00  0.000 
 3476.00  0.000 
 3477.00  0.000 
 3478.00  0.000 
 3479.00  0.000 
 3480.00  0.000 
 3481.00  0.000 
 3482.00  0.000 
 3483.00  0.000 
 3484.00  0.000 
 3485.00  0.000 
 3486.00  0.000 
 3487.00  0.000 
 3488.00  0.000 
 3489.00  0.000 
 3490.00  0.000 
 3491.00  0.000 
 3492.00  0.000 
 3493.00  0.000 
 3494.00  0.000 
 3495.00  0.000 
 3496.00  0.000 
 3497.00  0.000 
 3498.00  0.000 
 3499.00  0.000 
 3500.00  0.000 
 3501.00  0.000 
 3502.00  0.000 
 3503.00  0.000 
 3504.00  0.000 
 3505.00  0.000 
 3506.00  0.000 
 3507.00  0.000 
 3508.00  0.000 
 3509.00  0.000 
 3510.00  0.000 
 3511.00  0.000 
 3512.00  0.000 
 3513.00  0.000 
 3514.00  0.000 
 3515.00  0.000 
 3516.00  0.000 
 3517.00  0.000 
 3518.00  0.000 
 3519.00  0.000 
 3520.00  0.000 
 3521.00  0.000 
 3522.00  0.000 
 3523.00  0.000 
 3524.00  0.000 
 3525.00  0.000 
 3526.00  0.000 
 3527.00  0.000 
 3528.00  0.000 
 3529.00  0.000 
 3530.00  0.000 
 3531.00  0.000 
 3532.00  0.000 
 3533.00  0.000 
 3534.00  0.000 
 3535.00  0.000 
 3536.00  0.000 
 3537.00  0.000 
 3538.00  0.000 
 3539.00  0.000 
 3540.00  0.000 
 3541.00  0.000 
 3542.00  0.000 
 3543.00  0.000 
 3544.00  0.000 
 3545.00  0.000 
 3546.00  0.000 
 3547.00  0.000 
 3548.00  0.000 
 3549.00  0.000 
 3550.00  0.000 
 3551.00  0.000 
 3552.00  0.000 
 3553.00  0.000 
 3554.00  0.000 
 3555.00  0.000 
 3556.00  0.000 
 3557.00  0.000 
 3558.00  0.000 
 3559.00  0.000 
 3560.00  0.000 
 3561.00  0.000 
 3562.00  0.000 
 3563.00  0.000 
 3564.00  0.000 
 3565.00  0.000 
 3566.00  0.000 
 3567.00  0.000 
 3568.00  0.000 
 3569.00  0.000 
 3570.00  0.000 
 3571.00  0.000 
 3572.00  0.000 
 3573.00  0.000 
 3574.00  0.000 
 3575.00  0.000 
 3576.00  0.000 
 3577.00  0.000 
 3578.00  0.000 
 3579.00  0.000 
 3580.00  0.000 
 3581.00  0.000 
 3582.00  0.000 
 3583.00  0.000 
 3584.00  0.000 
 3585.00  0.000 
 3586.00  0.000 
 3587.00  0.000 
 3588.00  0.000 
 3589.00  0.000 
 3590.00  0.000 
 3591.00  0.000 
 3592.00  0.000 
 3593.00  0.000 
 3594.00  0.000 
 3595.00  0.000 
 3596.00  0.000 
 3597.00  0.000 
 3598.00  0.000 
 3599.00  0.000 
 3600.00  0.000 
 3601.00  0.000 
 3602.00  0.000 
 3603.00  0.000 
 3604.00  0.000 
 3605.00  0.000 
 3606.00  0.000 
 3607.00  0.000 
 3608.00  0.000 
 3609.00  0.000 
 3610.00  0.000 
 3611.00  0.000 
 3612.00  0.000 
 3613.00  0.000 
 3614.00  0.000 
 3615.00  0.000 
 3616.00  0.000 
 3617.00  0.000 
 3618.00  0.000 
 3619.00  0.000 
 3620.00  0.000 
 3621.00  0.000 
 3622.00  0.000 
 3623.00  0.000 
 3624.00  0.000 
 3625.00  0.000 
 3626.00  0.000 
 3627.00  0.000 
 3628.00  0.000 
 3629.00  0.000 
 3630.00  0.000 
 3631.00  0.000 
 3632.00  0.000 
 3633.00  0.000 
 3634.00  0.000 
 3635.00  0.000 
 3636.00  0.000 
 3637.00  0.000 
 3638.00  0.000 
 3639.00  0.000 
 3640.00  0.000 
 3641.00  0.000 
 3642.00  0.000 
 3643.00  0.000 
 3644.00  0.000 
 3645.00  0.000 
 3646.00  0.000 
 3647.00  0.001 
 3648.00  0.001 
 3649.00  0.001 
 3650.00  0.001 
 3651.00  0.001 
 3652.00  0.001 
 3653.00  0.001 
 3654.00  0.001 
 3655.00  0.001 
 3656.00  0.001 
 3657.00  0.001 
 3658.00  0.001 
 3659.00  0.001 
 3660.00  0.001 
 3661.00  0.001 
 3662.00  0.001 
 3663.00  0.001 
 3664.00  0.001 
 3665.00  0.001 
 3666.00  0.001 
 3667.00  0.001 
 3668.00  0.002 
 3669.00  0.002 
 3670.00  0.002 
 3671.00  0.002 
 3672.00  0.002 
 3673.00  0.002 
 3674.00  0.003 
 3675.00  0.003 
 3676.00  0.003 
 3677.00  0.003 
 3678.00  0.004 
 3679.00  0.004 
 3680.00  0.005 
 3681.00  0.005 
 3682.00  0.006 
 3683.00  0.007 
 3684.00  0.008 
 3685.00  0.009 
 3686.00  0.011 
 3687.00  0.013 
 3688.00  0.016 
 3689.00  0.020 
 3690.00  0.024 
 3691.00  0.029 
 3692.00  0.035 
 3693.00  0.041 
 3694.00  0.045 
 3695.00  0.046 
 3696.00  0.044 
 3697.00  0.039 
 3698.00  0.033 
 3699.00  0.027 
 3700.00  0.022 
 3701.00  0.018 
 3702.00  0.015 
 3703.00  0.013 
 3704.00  0.011 
 3705.00  0.009 
 3706.00  0.008 
 3707.00  0.007 
 3708.00  0.006 
 3709.00  0.005 
 3710.00  0.005 
 3711.00  0.004 
 3712.00  0.004 
 3713.00  0.003 
 3714.00  0.003 
 3715.00  0.003 
 3716.00  0.002 
 3717.00  0.002 
 3718.00  0.002 
 3719.00  0.002 
 3720.00  0.002 
 3721.00  0.002 
 3722.00  0.002 
 3723.00  0.001 
 3724.00  0.001 
 3725.00  0.001 
 3726.00  0.001 
 3727.00  0.001 
 3728.00  0.001 
 3729.00  0.001 
 3730.00  0.001 
 3731.00  0.001 
 3732.00  0.001 
 3733.00  0.001 
 3734.00  0.001 
 3735.00  0.001 
 3736.00  0.001 
 3737.00  0.001 
 3738.00  0.001 
 3739.00  0.001 
 3740.00  0.001 
 3741.00  0.001 
 3742.00  0.001 
 3743.00  0.001 
 3744.00  0.000 
 3745.00  0.000 
 3746.00  0.000 
 3747.00  0.000 
 3748.00  0.000 
 3749.00  0.000 
 3750.00  0.000 
 3751.00  0.000 
 3752.00  0.000 
 3753.00  0.000 
 3754.00  0.000 
 3755.00  0.000 
 3756.00  0.000 
 3757.00  0.000 
 3758.00  0.000 
 3759.00  0.000 
 3760.00  0.000 
 3761.00  0.000 
 3762.00  0.000 
 3763.00  0.000 
 3764.00  0.000 
 3765.00  0.000 
 3766.00  0.000 
 3767.00  0.000 
 3768.00  0.000 
 3769.00  0.000 
 3770.00  0.000 
 3771.00  0.000 
 3772.00  0.000 
 3773.00  0.000 
 3774.00  0.000 
 3775.00  0.000 
 3776.00  0.000 
 3777.00  0.000 
 3778.00  0.000 
 3779.00  0.000 
 3780.00  0.000 
 3781.00  0.000 
 3782.00  0.000 
 3783.00  0.000 
 3784.00  0.000 
 3785.00  0.000 
 3786.00  0.000 
 3787.00  0.000 
 3788.00  0.000 
 3789.00  0.000 
 3790.00  0.000 
 3791.00  0.000 
 3792.00  0.000 
 3793.00  0.000 
 3794.00  0.000 
 3795.00  0.000 
 3796.00  0.000 
 3797.00  0.000 
 3798.00  0.000 
 3799.00  0.000 
 3800.00  0.000 
