# v / cm^-1, IR Int./ AU, Raman Int. / AU
 -100.00  0.000  
  -99.00  0.000  
  -98.00  0.000  
  -97.00  0.000  
  -96.00  0.000  
  -95.00  0.000  
  -94.00  0.000  
  -93.00  0.000  
  -92.00  0.000  
  -91.00  0.000  
  -90.00  0.000  
  -89.00  0.000  
  -88.00  0.000  
  -87.00  0.000  
  -86.00  0.000  
  -85.00  0.000  
  -84.00  0.000  
  -83.00  0.000  
  -82.00  0.000  
  -81.00  0.000  
  -80.00  0.000  
  -79.00  0.000  
  -78.00  0.000  
  -77.00  0.000  
  -76.00  0.000  
  -75.00  0.000  
  -74.00  0.000  
  -73.00  0.000  
  -72.00  0.000  
  -71.00  0.000  
  -70.00  0.000  
  -69.00  0.000  
  -68.00  0.000  
  -67.00  0.000  
  -66.00  0.000  
  -65.00  0.000  
  -64.00  0.000  
  -63.00  0.000  
  -62.00  0.000  
  -61.00  0.000  
  -60.00  0.000  
  -59.00  0.000  
  -58.00  0.000  
  -57.00  0.000  
  -56.00  0.000  
  -55.00  0.000  
  -54.00  0.000  
  -53.00  0.000  
  -52.00  0.000  
  -51.00  0.000  
  -50.00  0.000  
  -49.00  0.000  
  -48.00  0.000  
  -47.00  0.000  
  -46.00  0.000  
  -45.00  0.001  
  -44.00  0.001  
  -43.00  0.001  
  -42.00  0.001  
  -41.00  0.001  
  -40.00  0.001  
  -39.00  0.001  
  -38.00  0.001  
  -37.00  0.001  
  -36.00  0.001  
  -35.00  0.001  
  -34.00  0.001  
  -33.00  0.001  
  -32.00  0.001  
  -31.00  0.001  
  -30.00  0.001  
  -29.00  0.001  
  -28.00  0.001  
  -27.00  0.001  
  -26.00  0.001  
  -25.00  0.001  
  -24.00  0.001  
  -23.00  0.001  
  -22.00  0.001  
  -21.00  0.001  
  -20.00  0.001  
  -19.00  0.001  
  -18.00  0.001  
  -17.00  0.001  
  -16.00  0.001  
  -15.00  0.001  
  -14.00  0.001  
  -13.00  0.001  
  -12.00  0.001  
  -11.00  0.001  
  -10.00  0.001  
   -9.00  0.001  
   -8.00  0.001  
   -7.00  0.001  
   -6.00  0.001  
   -5.00  0.001  
   -4.00  0.001  
   -3.00  0.001  
   -2.00  0.001  
   -1.00  0.001  
    0.00  0.001  
    1.00  0.001  
    2.00  0.001  
    3.00  0.001  
    4.00  0.001  
    5.00  0.001  
    6.00  0.001  
    7.00  0.001  
    8.00  0.001  
    9.00  0.001  
   10.00  0.001  
   11.00  0.001  
   12.00  0.001  
   13.00  0.001  
   14.00  0.001  
   15.00  0.001  
   16.00  0.001  
   17.00  0.001  
   18.00  0.001  
   19.00  0.001  
   20.00  0.001  
   21.00  0.001  
   22.00  0.001  
   23.00  0.001  
   24.00  0.001  
   25.00  0.001  
   26.00  0.001  
   27.00  0.001  
   28.00  0.001  
   29.00  0.001  
   30.00  0.001  
   31.00  0.001  
   32.00  0.001  
   33.00  0.001  
   34.00  0.001  
   35.00  0.001  
   36.00  0.001  
   37.00  0.001  
   38.00  0.001  
   39.00  0.001  
   40.00  0.001  
   41.00  0.001  
   42.00  0.001  
   43.00  0.001  
   44.00  0.001  
   45.00  0.001  
   46.00  0.001  
   47.00  0.001  
   48.00  0.001  
   49.00  0.001  
   50.00  0.001  
   51.00  0.001  
   52.00  0.001  
   53.00  0.001  
   54.00  0.001  
   55.00  0.001  
   56.00  0.001  
   57.00  0.001  
   58.00  0.001  
   59.00  0.001  
   60.00  0.001  
   61.00  0.002  
   62.00  0.002  
   63.00  0.002  
   64.00  0.002  
   65.00  0.002  
   66.00  0.002  
   67.00  0.002  
   68.00  0.002  
   69.00  0.002  
   70.00  0.002  
   71.00  0.002  
   72.00  0.002  
   73.00  0.002  
   74.00  0.002  
   75.00  0.002  
   76.00  0.002  
   77.00  0.002  
   78.00  0.002  
   79.00  0.003  
   80.00  0.003  
   81.00  0.003  
   82.00  0.003  
   83.00  0.003  
   84.00  0.003  
   85.00  0.003  
   86.00  0.004  
   87.00  0.004  
   88.00  0.004  
   89.00  0.004  
   90.00  0.005  
   91.00  0.005  
   92.00  0.006  
   93.00  0.007  
   94.00  0.007  
   95.00  0.008  
   96.00  0.010  
   97.00  0.011  
   98.00  0.013  
   99.00  0.016  
  100.00  0.019  
  101.00  0.022  
  102.00  0.026  
  103.00  0.029  
  104.00  0.031  
  105.00  0.030  
  106.00  0.027  
  107.00  0.024  
  108.00  0.020  
  109.00  0.017  
  110.00  0.015  
  111.00  0.013  
  112.00  0.011  
  113.00  0.010  
  114.00  0.009  
  115.00  0.008  
  116.00  0.008  
  117.00  0.007  
  118.00  0.007  
  119.00  0.007  
  120.00  0.007  
  121.00  0.007  
  122.00  0.007  
  123.00  0.007  
  124.00  0.008  
  125.00  0.008  
  126.00  0.009  
  127.00  0.010  
  128.00  0.011  
  129.00  0.013  
  130.00  0.014  
  131.00  0.015  
  132.00  0.015  
  133.00  0.014  
  134.00  0.013  
  135.00  0.012  
  136.00  0.010  
  137.00  0.010  
  138.00  0.009  
  139.00  0.008  
  140.00  0.008  
  141.00  0.008  
  142.00  0.008  
  143.00  0.007  
  144.00  0.007  
  145.00  0.007  
  146.00  0.008  
  147.00  0.008  
  148.00  0.008  
  149.00  0.008  
  150.00  0.008  
  151.00  0.008  
  152.00  0.009  
  153.00  0.009  
  154.00  0.010  
  155.00  0.010  
  156.00  0.011  
  157.00  0.011  
  158.00  0.012  
  159.00  0.013  
  160.00  0.013  
  161.00  0.015  
  162.00  0.016  
  163.00  0.017  
  164.00  0.019  
  165.00  0.021  
  166.00  0.023  
  167.00  0.026  
  168.00  0.030  
  169.00  0.035  
  170.00  0.040  
  171.00  0.047  
  172.00  0.054  
  173.00  0.060  
  174.00  0.064  
  175.00  0.065  
  176.00  0.063  
  177.00  0.059  
  178.00  0.055  
  179.00  0.051  
  180.00  0.049  
  181.00  0.048  
  182.00  0.048  
  183.00  0.050  
  184.00  0.052  
  185.00  0.056  
  186.00  0.061  
  187.00  0.067  
  188.00  0.075  
  189.00  0.085  
  190.00  0.098  
  191.00  0.114  
  192.00  0.134  
  193.00  0.160  
  194.00  0.193  
  195.00  0.234  
  196.00  0.284  
  197.00  0.341  
  198.00  0.399  
  199.00  0.443  
  200.00  0.460  
  201.00  0.441  
  202.00  0.394  
  203.00  0.336  
  204.00  0.279  
  205.00  0.230  
  206.00  0.189  
  207.00  0.156  
  208.00  0.131  
  209.00  0.110  
  210.00  0.094  
  211.00  0.081  
  212.00  0.071  
  213.00  0.062  
  214.00  0.055  
  215.00  0.049  
  216.00  0.045  
  217.00  0.041  
  218.00  0.037  
  219.00  0.035  
  220.00  0.032  
  221.00  0.031  
  222.00  0.029  
  223.00  0.028  
  224.00  0.028  
  225.00  0.028  
  226.00  0.028  
  227.00  0.029  
  228.00  0.031  
  229.00  0.034  
  230.00  0.036  
  231.00  0.039  
  232.00  0.040  
  233.00  0.040  
  234.00  0.037  
  235.00  0.033  
  236.00  0.029  
  237.00  0.026  
  238.00  0.022  
  239.00  0.020  
  240.00  0.018  
  241.00  0.016  
  242.00  0.014  
  243.00  0.013  
  244.00  0.012  
  245.00  0.011  
  246.00  0.011  
  247.00  0.010  
  248.00  0.010  
  249.00  0.009  
  250.00  0.009  
  251.00  0.008  
  252.00  0.008  
  253.00  0.008  
  254.00  0.007  
  255.00  0.007  
  256.00  0.007  
  257.00  0.007  
  258.00  0.007  
  259.00  0.006  
  260.00  0.006  
  261.00  0.006  
  262.00  0.006  
  263.00  0.006  
  264.00  0.006  
  265.00  0.006  
  266.00  0.006  
  267.00  0.006  
  268.00  0.005  
  269.00  0.005  
  270.00  0.005  
  271.00  0.005  
  272.00  0.005  
  273.00  0.005  
  274.00  0.005  
  275.00  0.005  
  276.00  0.005  
  277.00  0.005  
  278.00  0.005  
  279.00  0.005  
  280.00  0.005  
  281.00  0.005  
  282.00  0.005  
  283.00  0.005  
  284.00  0.005  
  285.00  0.005  
  286.00  0.005  
  287.00  0.005  
  288.00  0.005  
  289.00  0.005  
  290.00  0.005  
  291.00  0.005  
  292.00  0.005  
  293.00  0.005  
  294.00  0.005  
  295.00  0.005  
  296.00  0.005  
  297.00  0.005  
  298.00  0.005  
  299.00  0.006  
  300.00  0.006  
  301.00  0.006  
  302.00  0.006  
  303.00  0.006  
  304.00  0.006  
  305.00  0.006  
  306.00  0.006  
  307.00  0.006  
  308.00  0.006  
  309.00  0.006  
  310.00  0.007  
  311.00  0.007  
  312.00  0.007  
  313.00  0.007  
  314.00  0.007  
  315.00  0.007  
  316.00  0.007  
  317.00  0.008  
  318.00  0.008  
  319.00  0.008  
  320.00  0.008  
  321.00  0.008  
  322.00  0.009  
  323.00  0.009  
  324.00  0.009  
  325.00  0.009  
  326.00  0.010  
  327.00  0.010  
  328.00  0.010  
  329.00  0.011  
  330.00  0.011  
  331.00  0.011  
  332.00  0.012  
  333.00  0.012  
  334.00  0.013  
  335.00  0.013  
  336.00  0.014  
  337.00  0.014  
  338.00  0.015  
  339.00  0.015  
  340.00  0.016  
  341.00  0.017  
  342.00  0.017  
  343.00  0.018  
  344.00  0.019  
  345.00  0.020  
  346.00  0.021  
  347.00  0.022  
  348.00  0.024  
  349.00  0.025  
  350.00  0.027  
  351.00  0.028  
  352.00  0.030  
  353.00  0.032  
  354.00  0.034  
  355.00  0.037  
  356.00  0.040  
  357.00  0.043  
  358.00  0.046  
  359.00  0.050  
  360.00  0.055  
  361.00  0.060  
  362.00  0.066  
  363.00  0.073  
  364.00  0.081  
  365.00  0.090  
  366.00  0.101  
  367.00  0.114  
  368.00  0.130  
  369.00  0.149  
  370.00  0.173  
  371.00  0.201  
  372.00  0.237  
  373.00  0.282  
  374.00  0.339  
  375.00  0.411  
  376.00  0.502  
  377.00  0.612  
  378.00  0.737  
  379.00  0.863  
  380.00  0.962  
  381.00  1.000  
  382.00  0.961  
  383.00  0.861  
  384.00  0.734  
  385.00  0.609  
  386.00  0.500  
  387.00  0.410  
  388.00  0.338  
  389.00  0.282  
  390.00  0.237  
  391.00  0.201  
  392.00  0.173  
  393.00  0.149  
  394.00  0.131  
  395.00  0.115  
  396.00  0.102  
  397.00  0.091  
  398.00  0.082  
  399.00  0.074  
  400.00  0.067  
  401.00  0.061  
  402.00  0.056  
  403.00  0.052  
  404.00  0.048  
  405.00  0.045  
  406.00  0.042  
  407.00  0.040  
  408.00  0.038  
  409.00  0.036  
  410.00  0.034  
  411.00  0.033  
  412.00  0.033  
  413.00  0.032  
  414.00  0.033  
  415.00  0.033  
  416.00  0.034  
  417.00  0.035  
  418.00  0.034  
  419.00  0.033  
  420.00  0.031  
  421.00  0.029  
  422.00  0.026  
  423.00  0.024  
  424.00  0.022  
  425.00  0.020  
  426.00  0.019  
  427.00  0.018  
  428.00  0.017  
  429.00  0.016  
  430.00  0.015  
  431.00  0.014  
  432.00  0.014  
  433.00  0.013  
  434.00  0.013  
  435.00  0.013  
  436.00  0.012  
  437.00  0.012  
  438.00  0.012  
  439.00  0.011  
  440.00  0.011  
  441.00  0.011  
  442.00  0.011  
  443.00  0.011  
  444.00  0.010  
  445.00  0.010  
  446.00  0.010  
  447.00  0.010  
  448.00  0.010  
  449.00  0.010  
  450.00  0.010  
  451.00  0.010  
  452.00  0.010  
  453.00  0.010  
  454.00  0.010  
  455.00  0.010  
  456.00  0.010  
  457.00  0.010  
  458.00  0.010  
  459.00  0.011  
  460.00  0.011  
  461.00  0.011  
  462.00  0.011  
  463.00  0.011  
  464.00  0.012  
  465.00  0.012  
  466.00  0.012  
  467.00  0.013  
  468.00  0.013  
  469.00  0.014  
  470.00  0.014  
  471.00  0.015  
  472.00  0.016  
  473.00  0.017  
  474.00  0.018  
  475.00  0.019  
  476.00  0.020  
  477.00  0.021  
  478.00  0.023  
  479.00  0.024  
  480.00  0.026  
  481.00  0.029  
  482.00  0.031  
  483.00  0.034  
  484.00  0.038  
  485.00  0.042  
  486.00  0.047  
  487.00  0.054  
  488.00  0.061  
  489.00  0.070  
  490.00  0.082  
  491.00  0.096  
  492.00  0.114  
  493.00  0.136  
  494.00  0.165  
  495.00  0.201  
  496.00  0.244  
  497.00  0.293  
  498.00  0.343  
  499.00  0.380  
  500.00  0.394  
  501.00  0.377  
  502.00  0.337  
  503.00  0.287  
  504.00  0.238  
  505.00  0.196  
  506.00  0.161  
  507.00  0.133  
  508.00  0.111  
  509.00  0.093  
  510.00  0.080  
  511.00  0.068  
  512.00  0.059  
  513.00  0.052  
  514.00  0.046  
  515.00  0.041  
  516.00  0.037  
  517.00  0.033  
  518.00  0.030  
  519.00  0.027  
  520.00  0.025  
  521.00  0.023  
  522.00  0.021  
  523.00  0.019  
  524.00  0.018  
  525.00  0.017  
  526.00  0.016  
  527.00  0.015  
  528.00  0.014  
  529.00  0.013  
  530.00  0.012  
  531.00  0.012  
  532.00  0.011  
  533.00  0.010  
  534.00  0.010  
  535.00  0.010  
  536.00  0.009  
  537.00  0.009  
  538.00  0.008  
  539.00  0.008  
  540.00  0.008  
  541.00  0.007  
  542.00  0.007  
  543.00  0.007  
  544.00  0.007  
  545.00  0.006  
  546.00  0.006  
  547.00  0.006  
  548.00  0.006  
  549.00  0.006  
  550.00  0.005  
  551.00  0.005  
  552.00  0.005  
  553.00  0.005  
  554.00  0.005  
  555.00  0.005  
  556.00  0.005  
  557.00  0.005  
  558.00  0.004  
  559.00  0.004  
  560.00  0.004  
  561.00  0.004  
  562.00  0.004  
  563.00  0.004  
  564.00  0.004  
  565.00  0.004  
  566.00  0.004  
  567.00  0.004  
  568.00  0.004  
  569.00  0.004  
  570.00  0.003  
  571.00  0.003  
  572.00  0.003  
  573.00  0.003  
  574.00  0.003  
  575.00  0.003  
  576.00  0.003  
  577.00  0.003  
  578.00  0.003  
  579.00  0.003  
  580.00  0.003  
  581.00  0.003  
  582.00  0.003  
  583.00  0.003  
  584.00  0.003  
  585.00  0.003  
  586.00  0.003  
  587.00  0.003  
  588.00  0.003  
  589.00  0.003  
  590.00  0.003  
  591.00  0.003  
  592.00  0.003  
  593.00  0.003  
  594.00  0.003  
  595.00  0.003  
  596.00  0.003  
  597.00  0.003  
  598.00  0.003  
  599.00  0.003  
  600.00  0.003  
  601.00  0.003  
  602.00  0.003  
  603.00  0.003  
  604.00  0.003  
  605.00  0.003  
  606.00  0.003  
  607.00  0.003  
  608.00  0.003  
  609.00  0.003  
  610.00  0.003  
  611.00  0.003  
  612.00  0.003  
  613.00  0.003  
  614.00  0.003  
  615.00  0.003  
  616.00  0.003  
  617.00  0.003  
  618.00  0.003  
  619.00  0.003  
  620.00  0.003  
  621.00  0.003  
  622.00  0.003  
  623.00  0.003  
  624.00  0.003  
  625.00  0.003  
  626.00  0.003  
  627.00  0.003  
  628.00  0.003  
  629.00  0.003  
  630.00  0.003  
  631.00  0.003  
  632.00  0.003  
  633.00  0.003  
  634.00  0.003  
  635.00  0.003  
  636.00  0.003  
  637.00  0.003  
  638.00  0.003  
  639.00  0.003  
  640.00  0.003  
  641.00  0.003  
  642.00  0.003  
  643.00  0.003  
  644.00  0.003  
  645.00  0.003  
  646.00  0.003  
  647.00  0.004  
  648.00  0.004  
  649.00  0.004  
  650.00  0.004  
  651.00  0.004  
  652.00  0.004  
  653.00  0.004  
  654.00  0.004  
  655.00  0.004  
  656.00  0.004  
  657.00  0.005  
  658.00  0.005  
  659.00  0.005  
  660.00  0.005  
  661.00  0.005  
  662.00  0.005  
  663.00  0.006  
  664.00  0.006  
  665.00  0.006  
  666.00  0.007  
  667.00  0.007  
  668.00  0.007  
  669.00  0.008  
  670.00  0.008  
  671.00  0.009  
  672.00  0.009  
  673.00  0.010  
  674.00  0.011  
  675.00  0.011  
  676.00  0.012  
  677.00  0.013  
  678.00  0.015  
  679.00  0.016  
  680.00  0.018  
  681.00  0.020  
  682.00  0.022  
  683.00  0.025  
  684.00  0.028  
  685.00  0.032  
  686.00  0.038  
  687.00  0.044  
  688.00  0.052  
  689.00  0.062  
  690.00  0.075  
  691.00  0.091  
  692.00  0.110  
  693.00  0.133  
  694.00  0.155  
  695.00  0.173  
  696.00  0.181  
  697.00  0.175  
  698.00  0.157  
  699.00  0.136  
  700.00  0.114  
  701.00  0.095  
  702.00  0.080  
  703.00  0.068  
  704.00  0.059  
  705.00  0.053  
  706.00  0.048  
  707.00  0.044  
  708.00  0.040  
  709.00  0.037  
  710.00  0.033  
  711.00  0.029  
  712.00  0.025  
  713.00  0.022  
  714.00  0.020  
  715.00  0.018  
  716.00  0.016  
  717.00  0.014  
  718.00  0.013  
  719.00  0.012  
  720.00  0.011  
  721.00  0.011  
  722.00  0.010  
  723.00  0.009  
  724.00  0.009  
  725.00  0.008  
  726.00  0.008  
  727.00  0.008  
  728.00  0.007  
  729.00  0.007  
  730.00  0.007  
  731.00  0.007  
  732.00  0.006  
  733.00  0.006  
  734.00  0.006  
  735.00  0.006  
  736.00  0.006  
  737.00  0.006  
  738.00  0.005  
  739.00  0.005  
  740.00  0.005  
  741.00  0.005  
  742.00  0.005  
  743.00  0.005  
  744.00  0.005  
  745.00  0.005  
  746.00  0.005  
  747.00  0.005  
  748.00  0.005  
  749.00  0.005  
  750.00  0.005  
  751.00  0.005  
  752.00  0.005  
  753.00  0.005  
  754.00  0.005  
  755.00  0.005  
  756.00  0.005  
  757.00  0.005  
  758.00  0.005  
  759.00  0.005  
  760.00  0.005  
  761.00  0.005  
  762.00  0.005  
  763.00  0.005  
  764.00  0.005  
  765.00  0.005  
  766.00  0.005  
  767.00  0.005  
  768.00  0.005  
  769.00  0.006  
  770.00  0.006  
  771.00  0.006  
  772.00  0.006  
  773.00  0.006  
  774.00  0.006  
  775.00  0.006  
  776.00  0.006  
  777.00  0.006  
  778.00  0.007  
  779.00  0.007  
  780.00  0.007  
  781.00  0.007  
  782.00  0.007  
  783.00  0.008  
  784.00  0.008  
  785.00  0.008  
  786.00  0.008  
  787.00  0.008  
  788.00  0.009  
  789.00  0.009  
  790.00  0.009  
  791.00  0.010  
  792.00  0.010  
  793.00  0.011  
  794.00  0.011  
  795.00  0.012  
  796.00  0.012  
  797.00  0.013  
  798.00  0.013  
  799.00  0.014  
  800.00  0.015  
  801.00  0.016  
  802.00  0.018  
  803.00  0.019  
  804.00  0.021  
  805.00  0.023  
  806.00  0.026  
  807.00  0.029  
  808.00  0.032  
  809.00  0.034  
  810.00  0.035  
  811.00  0.035  
  812.00  0.034  
  813.00  0.033  
  814.00  0.032  
  815.00  0.032  
  816.00  0.032  
  817.00  0.033  
  818.00  0.034  
  819.00  0.035  
  820.00  0.037  
  821.00  0.039  
  822.00  0.041  
  823.00  0.044  
  824.00  0.048  
  825.00  0.051  
  826.00  0.056  
  827.00  0.061  
  828.00  0.067  
  829.00  0.075  
  830.00  0.083  
  831.00  0.093  
  832.00  0.105  
  833.00  0.119  
  834.00  0.136  
  835.00  0.157  
  836.00  0.183  
  837.00  0.215  
  838.00  0.256  
  839.00  0.307  
  840.00  0.372  
  841.00  0.453  
  842.00  0.553  
  843.00  0.667  
  844.00  0.785  
  845.00  0.881  
  846.00  0.923  
  847.00  0.895  
  848.00  0.807  
  849.00  0.691  
  850.00  0.575  
  851.00  0.472  
  852.00  0.387  
  853.00  0.319  
  854.00  0.265  
  855.00  0.222  
  856.00  0.188  
  857.00  0.161  
  858.00  0.139  
  859.00  0.121  
  860.00  0.107  
  861.00  0.094  
  862.00  0.084  
  863.00  0.075  
  864.00  0.068  
  865.00  0.061  
  866.00  0.056  
  867.00  0.051  
  868.00  0.047  
  869.00  0.043  
  870.00  0.040  
  871.00  0.037  
  872.00  0.034  
  873.00  0.032  
  874.00  0.030  
  875.00  0.028  
  876.00  0.026  
  877.00  0.025  
  878.00  0.023  
  879.00  0.022  
  880.00  0.021  
  881.00  0.020  
  882.00  0.019  
  883.00  0.018  
  884.00  0.017  
  885.00  0.016  
  886.00  0.015  
  887.00  0.015  
  888.00  0.014  
  889.00  0.014  
  890.00  0.013  
  891.00  0.013  
  892.00  0.012  
  893.00  0.012  
  894.00  0.011  
  895.00  0.011  
  896.00  0.011  
  897.00  0.010  
  898.00  0.010  
  899.00  0.010  
  900.00  0.010  
  901.00  0.009  
  902.00  0.009  
  903.00  0.009  
  904.00  0.009  
  905.00  0.009  
  906.00  0.009  
  907.00  0.009  
  908.00  0.009  
  909.00  0.009  
  910.00  0.009  
  911.00  0.009  
  912.00  0.009  
  913.00  0.010  
  914.00  0.010  
  915.00  0.010  
  916.00  0.011  
  917.00  0.012  
  918.00  0.013  
  919.00  0.015  
  920.00  0.017  
  921.00  0.019  
  922.00  0.022  
  923.00  0.026  
  924.00  0.029  
  925.00  0.031  
  926.00  0.032  
  927.00  0.030  
  928.00  0.027  
  929.00  0.024  
  930.00  0.020  
  931.00  0.017  
  932.00  0.015  
  933.00  0.013  
  934.00  0.012  
  935.00  0.010  
  936.00  0.009  
  937.00  0.009  
  938.00  0.008  
  939.00  0.007  
  940.00  0.007  
  941.00  0.007  
  942.00  0.006  
  943.00  0.006  
  944.00  0.006  
  945.00  0.006  
  946.00  0.006  
  947.00  0.006  
  948.00  0.006  
  949.00  0.006  
  950.00  0.006  
  951.00  0.007  
  952.00  0.007  
  953.00  0.007  
  954.00  0.008  
  955.00  0.009  
  956.00  0.010  
  957.00  0.011  
  958.00  0.013  
  959.00  0.015  
  960.00  0.017  
  961.00  0.019  
  962.00  0.020  
  963.00  0.020  
  964.00  0.018  
  965.00  0.016  
  966.00  0.014  
  967.00  0.012  
  968.00  0.010  
  969.00  0.009  
  970.00  0.008  
  971.00  0.007  
  972.00  0.006  
  973.00  0.005  
  974.00  0.005  
  975.00  0.005  
  976.00  0.004  
  977.00  0.004  
  978.00  0.004  
  979.00  0.004  
  980.00  0.003  
  981.00  0.003  
  982.00  0.003  
  983.00  0.003  
  984.00  0.003  
  985.00  0.003  
  986.00  0.003  
  987.00  0.003  
  988.00  0.003  
  989.00  0.003  
  990.00  0.003  
  991.00  0.002  
  992.00  0.002  
  993.00  0.002  
  994.00  0.002  
  995.00  0.002  
  996.00  0.002  
  997.00  0.002  
  998.00  0.002  
  999.00  0.002  
 1000.00  0.002  
 1001.00  0.002  
 1002.00  0.002  
 1003.00  0.002  
 1004.00  0.002  
 1005.00  0.002  
 1006.00  0.002  
 1007.00  0.002  
 1008.00  0.002  
 1009.00  0.002  
 1010.00  0.002  
 1011.00  0.002  
 1012.00  0.002  
 1013.00  0.002  
 1014.00  0.002  
 1015.00  0.002  
 1016.00  0.002  
 1017.00  0.002  
 1018.00  0.002  
 1019.00  0.002  
 1020.00  0.002  
 1021.00  0.002  
 1022.00  0.002  
 1023.00  0.002  
 1024.00  0.002  
 1025.00  0.002  
 1026.00  0.002  
 1027.00  0.002  
 1028.00  0.002  
 1029.00  0.002  
 1030.00  0.002  
 1031.00  0.002  
 1032.00  0.002  
 1033.00  0.002  
 1034.00  0.002  
 1035.00  0.002  
 1036.00  0.002  
 1037.00  0.002  
 1038.00  0.002  
 1039.00  0.002  
 1040.00  0.002  
 1041.00  0.002  
 1042.00  0.002  
 1043.00  0.002  
 1044.00  0.002  
 1045.00  0.002  
 1046.00  0.002  
 1047.00  0.002  
 1048.00  0.002  
 1049.00  0.002  
 1050.00  0.002  
 1051.00  0.002  
 1052.00  0.002  
 1053.00  0.002  
 1054.00  0.002  
 1055.00  0.002  
 1056.00  0.002  
 1057.00  0.002  
 1058.00  0.002  
 1059.00  0.002  
 1060.00  0.002  
 1061.00  0.002  
 1062.00  0.002  
 1063.00  0.002  
 1064.00  0.002  
 1065.00  0.002  
 1066.00  0.002  
 1067.00  0.002  
 1068.00  0.002  
 1069.00  0.002  
 1070.00  0.002  
 1071.00  0.002  
 1072.00  0.002  
 1073.00  0.002  
 1074.00  0.002  
 1075.00  0.002  
 1076.00  0.002  
 1077.00  0.002  
 1078.00  0.002  
 1079.00  0.002  
 1080.00  0.002  
 1081.00  0.002  
 1082.00  0.002  
 1083.00  0.002  
 1084.00  0.002  
 1085.00  0.002  
 1086.00  0.002  
 1087.00  0.002  
 1088.00  0.002  
 1089.00  0.002  
 1090.00  0.002  
 1091.00  0.002  
 1092.00  0.002  
 1093.00  0.002  
 1094.00  0.002  
 1095.00  0.002  
 1096.00  0.002  
 1097.00  0.002  
 1098.00  0.003  
 1099.00  0.003  
 1100.00  0.003  
 1101.00  0.003  
 1102.00  0.003  
 1103.00  0.003  
 1104.00  0.003  
 1105.00  0.003  
 1106.00  0.003  
 1107.00  0.003  
 1108.00  0.003  
 1109.00  0.003  
 1110.00  0.003  
 1111.00  0.003  
 1112.00  0.003  
 1113.00  0.003  
 1114.00  0.003  
 1115.00  0.003  
 1116.00  0.004  
 1117.00  0.004  
 1118.00  0.004  
 1119.00  0.004  
 1120.00  0.004  
 1121.00  0.004  
 1122.00  0.004  
 1123.00  0.004  
 1124.00  0.004  
 1125.00  0.005  
 1126.00  0.005  
 1127.00  0.005  
 1128.00  0.005  
 1129.00  0.005  
 1130.00  0.005  
 1131.00  0.006  
 1132.00  0.006  
 1133.00  0.006  
 1134.00  0.006  
 1135.00  0.007  
 1136.00  0.007  
 1137.00  0.007  
 1138.00  0.008  
 1139.00  0.008  
 1140.00  0.008  
 1141.00  0.009  
 1142.00  0.009  
 1143.00  0.010  
 1144.00  0.010  
 1145.00  0.011  
 1146.00  0.012  
 1147.00  0.013  
 1148.00  0.013  
 1149.00  0.014  
 1150.00  0.016  
 1151.00  0.017  
 1152.00  0.018  
 1153.00  0.020  
 1154.00  0.022  
 1155.00  0.024  
 1156.00  0.027  
 1157.00  0.029  
 1158.00  0.033  
 1159.00  0.037  
 1160.00  0.042  
 1161.00  0.048  
 1162.00  0.055  
 1163.00  0.065  
 1164.00  0.076  
 1165.00  0.090  
 1166.00  0.108  
 1167.00  0.131  
 1168.00  0.159  
 1169.00  0.194  
 1170.00  0.233  
 1171.00  0.273  
 1172.00  0.305  
 1173.00  0.317  
 1174.00  0.305  
 1175.00  0.274  
 1176.00  0.234  
 1177.00  0.194  
 1178.00  0.160  
 1179.00  0.131  
 1180.00  0.108  
 1181.00  0.091  
 1182.00  0.076  
 1183.00  0.065  
 1184.00  0.056  
 1185.00  0.049  
 1186.00  0.043  
 1187.00  0.038  
 1188.00  0.034  
 1189.00  0.030  
 1190.00  0.027  
 1191.00  0.025  
 1192.00  0.023  
 1193.00  0.021  
 1194.00  0.019  
 1195.00  0.018  
 1196.00  0.017  
 1197.00  0.015  
 1198.00  0.014  
 1199.00  0.014  
 1200.00  0.013  
 1201.00  0.012  
 1202.00  0.012  
 1203.00  0.011  
 1204.00  0.011  
 1205.00  0.010  
 1206.00  0.010  
 1207.00  0.010  
 1208.00  0.010  
 1209.00  0.009  
 1210.00  0.009  
 1211.00  0.009  
 1212.00  0.009  
 1213.00  0.009  
 1214.00  0.009  
 1215.00  0.009  
 1216.00  0.008  
 1217.00  0.008  
 1218.00  0.008  
 1219.00  0.008  
 1220.00  0.007  
 1221.00  0.007  
 1222.00  0.007  
 1223.00  0.007  
 1224.00  0.007  
 1225.00  0.007  
 1226.00  0.007  
 1227.00  0.007  
 1228.00  0.007  
 1229.00  0.007  
 1230.00  0.007  
 1231.00  0.007  
 1232.00  0.007  
 1233.00  0.007  
 1234.00  0.007  
 1235.00  0.007  
 1236.00  0.007  
 1237.00  0.007  
 1238.00  0.007  
 1239.00  0.007  
 1240.00  0.007  
 1241.00  0.007  
 1242.00  0.008  
 1243.00  0.008  
 1244.00  0.008  
 1245.00  0.008  
 1246.00  0.008  
 1247.00  0.008  
 1248.00  0.009  
 1249.00  0.009  
 1250.00  0.009  
 1251.00  0.009  
 1252.00  0.010  
 1253.00  0.010  
 1254.00  0.010  
 1255.00  0.011  
 1256.00  0.011  
 1257.00  0.011  
 1258.00  0.012  
 1259.00  0.012  
 1260.00  0.013  
 1261.00  0.013  
 1262.00  0.014  
 1263.00  0.015  
 1264.00  0.016  
 1265.00  0.016  
 1266.00  0.017  
 1267.00  0.018  
 1268.00  0.019  
 1269.00  0.020  
 1270.00  0.022  
 1271.00  0.023  
 1272.00  0.025  
 1273.00  0.027  
 1274.00  0.029  
 1275.00  0.031  
 1276.00  0.033  
 1277.00  0.036  
 1278.00  0.039  
 1279.00  0.043  
 1280.00  0.048  
 1281.00  0.053  
 1282.00  0.058  
 1283.00  0.065  
 1284.00  0.073  
 1285.00  0.083  
 1286.00  0.095  
 1287.00  0.109  
 1288.00  0.127  
 1289.00  0.149  
 1290.00  0.177  
 1291.00  0.211  
 1292.00  0.255  
 1293.00  0.310  
 1294.00  0.379  
 1295.00  0.459  
 1296.00  0.545  
 1297.00  0.622  
 1298.00  0.667  
 1299.00  0.661  
 1300.00  0.609  
 1301.00  0.529  
 1302.00  0.442  
 1303.00  0.364  
 1304.00  0.299  
 1305.00  0.246  
 1306.00  0.204  
 1307.00  0.171  
 1308.00  0.144  
 1309.00  0.123  
 1310.00  0.106  
 1311.00  0.093  
 1312.00  0.081  
 1313.00  0.072  
 1314.00  0.064  
 1315.00  0.057  
 1316.00  0.052  
 1317.00  0.047  
 1318.00  0.042  
 1319.00  0.039  
 1320.00  0.036  
 1321.00  0.033  
 1322.00  0.030  
 1323.00  0.028  
 1324.00  0.026  
 1325.00  0.024  
 1326.00  0.023  
 1327.00  0.022  
 1328.00  0.020  
 1329.00  0.019  
 1330.00  0.018  
 1331.00  0.017  
 1332.00  0.016  
 1333.00  0.015  
 1334.00  0.015  
 1335.00  0.014  
 1336.00  0.014  
 1337.00  0.013  
 1338.00  0.012  
 1339.00  0.012  
 1340.00  0.012  
 1341.00  0.011  
 1342.00  0.011  
 1343.00  0.010  
 1344.00  0.010  
 1345.00  0.010  
 1346.00  0.010  
 1347.00  0.009  
 1348.00  0.009  
 1349.00  0.009  
 1350.00  0.009  
 1351.00  0.008  
 1352.00  0.008  
 1353.00  0.008  
 1354.00  0.008  
 1355.00  0.008  
 1356.00  0.008  
 1357.00  0.008  
 1358.00  0.008  
 1359.00  0.008  
 1360.00  0.007  
 1361.00  0.007  
 1362.00  0.007  
 1363.00  0.007  
 1364.00  0.007  
 1365.00  0.007  
 1366.00  0.007  
 1367.00  0.007  
 1368.00  0.007  
 1369.00  0.008  
 1370.00  0.008  
 1371.00  0.008  
 1372.00  0.008  
 1373.00  0.008  
 1374.00  0.008  
 1375.00  0.008  
 1376.00  0.008  
 1377.00  0.009  
 1378.00  0.009  
 1379.00  0.009  
 1380.00  0.009  
 1381.00  0.010  
 1382.00  0.010  
 1383.00  0.011  
 1384.00  0.011  
 1385.00  0.012  
 1386.00  0.012  
 1387.00  0.013  
 1388.00  0.014  
 1389.00  0.014  
 1390.00  0.015  
 1391.00  0.017  
 1392.00  0.018  
 1393.00  0.020  
 1394.00  0.021  
 1395.00  0.023  
 1396.00  0.026  
 1397.00  0.029  
 1398.00  0.032  
 1399.00  0.037  
 1400.00  0.042  
 1401.00  0.048  
 1402.00  0.056  
 1403.00  0.066  
 1404.00  0.079  
 1405.00  0.094  
 1406.00  0.114  
 1407.00  0.139  
 1408.00  0.167  
 1409.00  0.196  
 1410.00  0.220  
 1411.00  0.232  
 1412.00  0.227  
 1413.00  0.207  
 1414.00  0.181  
 1415.00  0.155  
 1416.00  0.132  
 1417.00  0.115  
 1418.00  0.102  
 1419.00  0.093  
 1420.00  0.088  
 1421.00  0.084  
 1422.00  0.079  
 1423.00  0.072  
 1424.00  0.065  
 1425.00  0.056  
 1426.00  0.048  
 1427.00  0.042  
 1428.00  0.036  
 1429.00  0.031  
 1430.00  0.027  
 1431.00  0.024  
 1432.00  0.022  
 1433.00  0.020  
 1434.00  0.018  
 1435.00  0.016  
 1436.00  0.015  
 1437.00  0.014  
 1438.00  0.013  
 1439.00  0.012  
 1440.00  0.011  
 1441.00  0.010  
 1442.00  0.010  
 1443.00  0.009  
 1444.00  0.009  
 1445.00  0.008  
 1446.00  0.008  
 1447.00  0.007  
 1448.00  0.007  
 1449.00  0.007  
 1450.00  0.007  
 1451.00  0.006  
 1452.00  0.006  
 1453.00  0.006  
 1454.00  0.006  
 1455.00  0.005  
 1456.00  0.005  
 1457.00  0.005  
 1458.00  0.005  
 1459.00  0.005  
 1460.00  0.005  
 1461.00  0.005  
 1462.00  0.004  
 1463.00  0.004  
 1464.00  0.004  
 1465.00  0.004  
 1466.00  0.004  
 1467.00  0.004  
 1468.00  0.004  
 1469.00  0.004  
 1470.00  0.004  
 1471.00  0.004  
 1472.00  0.004  
 1473.00  0.004  
 1474.00  0.004  
 1475.00  0.003  
 1476.00  0.003  
 1477.00  0.003  
 1478.00  0.003  
 1479.00  0.003  
 1480.00  0.003  
 1481.00  0.003  
 1482.00  0.003  
 1483.00  0.003  
 1484.00  0.003  
 1485.00  0.003  
 1486.00  0.003  
 1487.00  0.003  
 1488.00  0.003  
 1489.00  0.003  
 1490.00  0.003  
 1491.00  0.003  
 1492.00  0.003  
 1493.00  0.003  
 1494.00  0.003  
 1495.00  0.003  
 1496.00  0.003  
 1497.00  0.003  
 1498.00  0.003  
 1499.00  0.003  
 1500.00  0.003  
 1501.00  0.003  
 1502.00  0.003  
 1503.00  0.003  
 1504.00  0.003  
 1505.00  0.003  
 1506.00  0.003  
 1507.00  0.003  
 1508.00  0.003  
 1509.00  0.003  
 1510.00  0.003  
 1511.00  0.003  
 1512.00  0.003  
 1513.00  0.003  
 1514.00  0.003  
 1515.00  0.003  
 1516.00  0.003  
 1517.00  0.003  
 1518.00  0.003  
 1519.00  0.003  
 1520.00  0.003  
 1521.00  0.003  
 1522.00  0.003  
 1523.00  0.003  
 1524.00  0.003  
 1525.00  0.003  
 1526.00  0.003  
 1527.00  0.003  
 1528.00  0.003  
 1529.00  0.003  
 1530.00  0.004  
 1531.00  0.004  
 1532.00  0.004  
 1533.00  0.004  
 1534.00  0.004  
 1535.00  0.004  
 1536.00  0.004  
 1537.00  0.004  
 1538.00  0.004  
 1539.00  0.004  
 1540.00  0.004  
 1541.00  0.004  
 1542.00  0.004  
 1543.00  0.004  
 1544.00  0.004  
 1545.00  0.004  
 1546.00  0.004  
 1547.00  0.005  
 1548.00  0.005  
 1549.00  0.005  
 1550.00  0.005  
 1551.00  0.005  
 1552.00  0.005  
 1553.00  0.005  
 1554.00  0.005  
 1555.00  0.005  
 1556.00  0.006  
 1557.00  0.006  
 1558.00  0.006  
 1559.00  0.006  
 1560.00  0.006  
 1561.00  0.006  
 1562.00  0.006  
 1563.00  0.007  
 1564.00  0.007  
 1565.00  0.007  
 1566.00  0.007  
 1567.00  0.007  
 1568.00  0.008  
 1569.00  0.008  
 1570.00  0.008  
 1571.00  0.008  
 1572.00  0.009  
 1573.00  0.009  
 1574.00  0.009  
 1575.00  0.009  
 1576.00  0.010  
 1577.00  0.010  
 1578.00  0.011  
 1579.00  0.011  
 1580.00  0.011  
 1581.00  0.012  
 1582.00  0.012  
 1583.00  0.013  
 1584.00  0.013  
 1585.00  0.014  
 1586.00  0.015  
 1587.00  0.015  
 1588.00  0.016  
 1589.00  0.017  
 1590.00  0.018  
 1591.00  0.019  
 1592.00  0.020  
 1593.00  0.021  
 1594.00  0.022  
 1595.00  0.023  
 1596.00  0.025  
 1597.00  0.026  
 1598.00  0.028  
 1599.00  0.030  
 1600.00  0.032  
 1601.00  0.034  
 1602.00  0.037  
 1603.00  0.040  
 1604.00  0.043  
 1605.00  0.047  
 1606.00  0.051  
 1607.00  0.056  
 1608.00  0.061  
 1609.00  0.067  
 1610.00  0.075  
 1611.00  0.083  
 1612.00  0.093  
 1613.00  0.105  
 1614.00  0.119  
 1615.00  0.136  
 1616.00  0.157  
 1617.00  0.182  
 1618.00  0.213  
 1619.00  0.253  
 1620.00  0.302  
 1621.00  0.365  
 1622.00  0.444  
 1623.00  0.542  
 1624.00  0.659  
 1625.00  0.786  
 1626.00  0.903  
 1627.00  0.976  
 1628.00  0.979  
 1629.00  0.909  
 1630.00  0.794  
 1631.00  0.667  
 1632.00  0.549  
 1633.00  0.450  
 1634.00  0.369  
 1635.00  0.306  
 1636.00  0.255  
 1637.00  0.216  
 1638.00  0.184  
 1639.00  0.158  
 1640.00  0.137  
 1641.00  0.120  
 1642.00  0.106  
 1643.00  0.094  
 1644.00  0.084  
 1645.00  0.075  
 1646.00  0.068  
 1647.00  0.061  
 1648.00  0.056  
 1649.00  0.051  
 1650.00  0.047  
 1651.00  0.043  
 1652.00  0.040  
 1653.00  0.037  
 1654.00  0.034  
 1655.00  0.032  
 1656.00  0.030  
 1657.00  0.028  
 1658.00  0.026  
 1659.00  0.025  
 1660.00  0.023  
 1661.00  0.022  
 1662.00  0.021  
 1663.00  0.020  
 1664.00  0.019  
 1665.00  0.018  
 1666.00  0.017  
 1667.00  0.016  
 1668.00  0.015  
 1669.00  0.014  
 1670.00  0.014  
 1671.00  0.013  
 1672.00  0.013  
 1673.00  0.012  
 1674.00  0.012  
 1675.00  0.011  
 1676.00  0.011  
 1677.00  0.010  
 1678.00  0.010  
 1679.00  0.010  
 1680.00  0.009  
 1681.00  0.009  
 1682.00  0.009  
 1683.00  0.008  
 1684.00  0.008  
 1685.00  0.008  
 1686.00  0.007  
 1687.00  0.007  
 1688.00  0.007  
 1689.00  0.007  
 1690.00  0.007  
 1691.00  0.006  
 1692.00  0.006  
 1693.00  0.006  
 1694.00  0.006  
 1695.00  0.006  
 1696.00  0.006  
 1697.00  0.005  
 1698.00  0.005  
 1699.00  0.005  
 1700.00  0.005  
 1701.00  0.005  
 1702.00  0.005  
 1703.00  0.005  
 1704.00  0.004  
 1705.00  0.004  
 1706.00  0.004  
 1707.00  0.004  
 1708.00  0.004  
 1709.00  0.004  
 1710.00  0.004  
 1711.00  0.004  
 1712.00  0.004  
 1713.00  0.004  
 1714.00  0.004  
 1715.00  0.003  
 1716.00  0.003  
 1717.00  0.003  
 1718.00  0.003  
 1719.00  0.003  
 1720.00  0.003  
 1721.00  0.003  
 1722.00  0.003  
 1723.00  0.003  
 1724.00  0.003  
 1725.00  0.003  
 1726.00  0.003  
 1727.00  0.003  
 1728.00  0.003  
 1729.00  0.003  
 1730.00  0.003  
 1731.00  0.003  
 1732.00  0.002  
 1733.00  0.002  
 1734.00  0.002  
 1735.00  0.002  
 1736.00  0.002  
 1737.00  0.002  
 1738.00  0.002  
 1739.00  0.002  
 1740.00  0.002  
 1741.00  0.002  
 1742.00  0.002  
 1743.00  0.002  
 1744.00  0.002  
 1745.00  0.002  
 1746.00  0.002  
 1747.00  0.002  
 1748.00  0.002  
 1749.00  0.002  
 1750.00  0.002  
 1751.00  0.002  
 1752.00  0.002  
 1753.00  0.002  
 1754.00  0.002  
 1755.00  0.002  
 1756.00  0.002  
 1757.00  0.002  
 1758.00  0.002  
 1759.00  0.002  
 1760.00  0.002  
 1761.00  0.002  
 1762.00  0.002  
 1763.00  0.002  
 1764.00  0.002  
 1765.00  0.002  
 1766.00  0.001  
 1767.00  0.001  
 1768.00  0.001  
 1769.00  0.001  
 1770.00  0.001  
 1771.00  0.001  
 1772.00  0.001  
 1773.00  0.001  
 1774.00  0.001  
 1775.00  0.001  
 1776.00  0.001  
 1777.00  0.001  
 1778.00  0.001  
 1779.00  0.001  
 1780.00  0.001  
 1781.00  0.001  
 1782.00  0.001  
 1783.00  0.001  
 1784.00  0.001  
 1785.00  0.001  
 1786.00  0.001  
 1787.00  0.001  
 1788.00  0.001  
 1789.00  0.001  
 1790.00  0.001  
 1791.00  0.001  
 1792.00  0.001  
 1793.00  0.001  
 1794.00  0.001  
 1795.00  0.001  
 1796.00  0.001  
 1797.00  0.001  
 1798.00  0.001  
 1799.00  0.001  
 1800.00  0.001  
 1801.00  0.001  
 1802.00  0.001  
 1803.00  0.001  
 1804.00  0.001  
 1805.00  0.001  
 1806.00  0.001  
 1807.00  0.001  
 1808.00  0.001  
 1809.00  0.001  
 1810.00  0.001  
 1811.00  0.001  
 1812.00  0.001  
 1813.00  0.001  
 1814.00  0.001  
 1815.00  0.001  
 1816.00  0.001  
 1817.00  0.001  
 1818.00  0.001  
 1819.00  0.001  
 1820.00  0.001  
 1821.00  0.001  
 1822.00  0.001  
 1823.00  0.001  
 1824.00  0.001  
 1825.00  0.001  
 1826.00  0.001  
 1827.00  0.001  
 1828.00  0.001  
 1829.00  0.001  
 1830.00  0.001  
 1831.00  0.001  
 1832.00  0.001  
 1833.00  0.001  
 1834.00  0.001  
 1835.00  0.001  
 1836.00  0.001  
 1837.00  0.001  
 1838.00  0.001  
 1839.00  0.001  
 1840.00  0.001  
 1841.00  0.001  
 1842.00  0.001  
 1843.00  0.001  
 1844.00  0.001  
 1845.00  0.001  
 1846.00  0.001  
 1847.00  0.001  
 1848.00  0.001  
 1849.00  0.001  
 1850.00  0.001  
 1851.00  0.001  
 1852.00  0.001  
 1853.00  0.001  
 1854.00  0.001  
 1855.00  0.001  
 1856.00  0.001  
 1857.00  0.001  
 1858.00  0.001  
 1859.00  0.001  
 1860.00  0.001  
 1861.00  0.001  
 1862.00  0.001  
 1863.00  0.001  
 1864.00  0.001  
 1865.00  0.001  
 1866.00  0.001  
 1867.00  0.001  
 1868.00  0.001  
 1869.00  0.001  
 1870.00  0.001  
 1871.00  0.001  
 1872.00  0.001  
 1873.00  0.001  
 1874.00  0.001  
 1875.00  0.001  
 1876.00  0.001  
 1877.00  0.001  
 1878.00  0.001  
 1879.00  0.001  
 1880.00  0.001  
 1881.00  0.001  
 1882.00  0.001  
 1883.00  0.001  
 1884.00  0.001  
 1885.00  0.001  
 1886.00  0.001  
 1887.00  0.001  
 1888.00  0.001  
 1889.00  0.001  
 1890.00  0.001  
 1891.00  0.000  
 1892.00  0.000  
 1893.00  0.000  
 1894.00  0.000  
 1895.00  0.000  
 1896.00  0.000  
 1897.00  0.000  
 1898.00  0.000  
 1899.00  0.000  
 1900.00  0.000  
 1901.00  0.000  
 1902.00  0.000  
 1903.00  0.000  
 1904.00  0.000  
 1905.00  0.000  
 1906.00  0.000  
 1907.00  0.000  
 1908.00  0.000  
 1909.00  0.000  
 1910.00  0.000  
 1911.00  0.000  
 1912.00  0.000  
 1913.00  0.000  
 1914.00  0.000  
 1915.00  0.000  
 1916.00  0.000  
 1917.00  0.000  
 1918.00  0.000  
 1919.00  0.000  
 1920.00  0.000  
 1921.00  0.000  
 1922.00  0.000  
 1923.00  0.000  
 1924.00  0.000  
 1925.00  0.000  
 1926.00  0.000  
 1927.00  0.000  
 1928.00  0.000  
 1929.00  0.000  
 1930.00  0.000  
 1931.00  0.000  
 1932.00  0.000  
 1933.00  0.000  
 1934.00  0.000  
 1935.00  0.000  
 1936.00  0.000  
 1937.00  0.000  
 1938.00  0.000  
 1939.00  0.000  
 1940.00  0.000  
 1941.00  0.000  
 1942.00  0.000  
 1943.00  0.000  
 1944.00  0.000  
 1945.00  0.000  
 1946.00  0.000  
 1947.00  0.000  
 1948.00  0.000  
 1949.00  0.000  
 1950.00  0.000  
 1951.00  0.000  
 1952.00  0.000  
 1953.00  0.000  
 1954.00  0.000  
 1955.00  0.000  
 1956.00  0.000  
 1957.00  0.000  
 1958.00  0.000  
 1959.00  0.000  
 1960.00  0.000  
 1961.00  0.000  
 1962.00  0.000  
 1963.00  0.000  
 1964.00  0.000  
 1965.00  0.000  
 1966.00  0.000  
 1967.00  0.000  
 1968.00  0.000  
 1969.00  0.000  
 1970.00  0.000  
 1971.00  0.000  
 1972.00  0.000  
 1973.00  0.000  
 1974.00  0.000  
 1975.00  0.000  
 1976.00  0.000  
 1977.00  0.000  
 1978.00  0.000  
 1979.00  0.000  
 1980.00  0.000  
 1981.00  0.000  
 1982.00  0.000  
 1983.00  0.000  
 1984.00  0.000  
 1985.00  0.000  
 1986.00  0.000  
 1987.00  0.000  
 1988.00  0.000  
 1989.00  0.000  
 1990.00  0.000  
 1991.00  0.000  
 1992.00  0.000  
 1993.00  0.000  
 1994.00  0.000  
 1995.00  0.000  
 1996.00  0.000  
 1997.00  0.000  
 1998.00  0.000  
 1999.00  0.000  
 2000.00  0.000  
 2001.00  0.000  
 2002.00  0.000  
 2003.00  0.000  
 2004.00  0.000  
 2005.00  0.000  
 2006.00  0.000  
 2007.00  0.000  
 2008.00  0.000  
 2009.00  0.000  
 2010.00  0.000  
 2011.00  0.000  
 2012.00  0.000  
 2013.00  0.000  
 2014.00  0.000  
 2015.00  0.000  
 2016.00  0.000  
 2017.00  0.000  
 2018.00  0.000  
 2019.00  0.000  
 2020.00  0.000  
 2021.00  0.000  
 2022.00  0.000  
 2023.00  0.000  
 2024.00  0.000  
 2025.00  0.000  
 2026.00  0.000  
 2027.00  0.000  
 2028.00  0.000  
 2029.00  0.000  
 2030.00  0.000  
 2031.00  0.000  
 2032.00  0.000  
 2033.00  0.000  
 2034.00  0.000  
 2035.00  0.000  
 2036.00  0.000  
 2037.00  0.000  
 2038.00  0.000  
 2039.00  0.000  
 2040.00  0.000  
 2041.00  0.000  
 2042.00  0.000  
 2043.00  0.000  
 2044.00  0.000  
 2045.00  0.000  
 2046.00  0.000  
 2047.00  0.000  
 2048.00  0.000  
 2049.00  0.000  
 2050.00  0.000  
 2051.00  0.000  
 2052.00  0.000  
 2053.00  0.000  
 2054.00  0.000  
 2055.00  0.000  
 2056.00  0.000  
 2057.00  0.000  
 2058.00  0.000  
 2059.00  0.000  
 2060.00  0.000  
 2061.00  0.000  
 2062.00  0.000  
 2063.00  0.000  
 2064.00  0.000  
 2065.00  0.000  
 2066.00  0.000  
 2067.00  0.000  
 2068.00  0.000  
 2069.00  0.000  
 2070.00  0.000  
 2071.00  0.000  
 2072.00  0.000  
 2073.00  0.000  
 2074.00  0.000  
 2075.00  0.000  
 2076.00  0.000  
 2077.00  0.000  
 2078.00  0.000  
 2079.00  0.000  
 2080.00  0.000  
 2081.00  0.000  
 2082.00  0.000  
 2083.00  0.000  
 2084.00  0.000  
 2085.00  0.000  
 2086.00  0.000  
 2087.00  0.000  
 2088.00  0.000  
 2089.00  0.000  
 2090.00  0.000  
 2091.00  0.000  
 2092.00  0.000  
 2093.00  0.000  
 2094.00  0.000  
 2095.00  0.000  
 2096.00  0.000  
 2097.00  0.000  
 2098.00  0.000  
 2099.00  0.000  
 2100.00  0.000  
 2101.00  0.000  
 2102.00  0.000  
 2103.00  0.000  
 2104.00  0.000  
 2105.00  0.000  
 2106.00  0.000  
 2107.00  0.000  
 2108.00  0.000  
 2109.00  0.000  
 2110.00  0.000  
 2111.00  0.000  
 2112.00  0.000  
 2113.00  0.000  
 2114.00  0.000  
 2115.00  0.000  
 2116.00  0.000  
 2117.00  0.000  
 2118.00  0.000  
 2119.00  0.000  
 2120.00  0.000  
 2121.00  0.000  
 2122.00  0.000  
 2123.00  0.000  
 2124.00  0.000  
 2125.00  0.000  
 2126.00  0.000  
 2127.00  0.000  
 2128.00  0.000  
 2129.00  0.000  
 2130.00  0.000  
 2131.00  0.000  
 2132.00  0.000  
 2133.00  0.000  
 2134.00  0.000  
 2135.00  0.000  
 2136.00  0.000  
 2137.00  0.000  
 2138.00  0.000  
 2139.00  0.000  
 2140.00  0.000  
 2141.00  0.000  
 2142.00  0.000  
 2143.00  0.000  
 2144.00  0.000  
 2145.00  0.000  
 2146.00  0.000  
 2147.00  0.000  
 2148.00  0.000  
 2149.00  0.000  
 2150.00  0.000  
 2151.00  0.000  
 2152.00  0.000  
 2153.00  0.000  
 2154.00  0.000  
 2155.00  0.000  
 2156.00  0.000  
 2157.00  0.000  
 2158.00  0.000  
 2159.00  0.000  
 2160.00  0.000  
 2161.00  0.000  
 2162.00  0.000  
 2163.00  0.000  
 2164.00  0.000  
 2165.00  0.000  
 2166.00  0.000  
 2167.00  0.000  
 2168.00  0.000  
 2169.00  0.000  
 2170.00  0.000  
 2171.00  0.000  
 2172.00  0.000  
 2173.00  0.000  
 2174.00  0.000  
 2175.00  0.000  
 2176.00  0.000  
 2177.00  0.000  
 2178.00  0.000  
 2179.00  0.000  
 2180.00  0.000  
 2181.00  0.000  
 2182.00  0.000  
 2183.00  0.000  
 2184.00  0.000  
 2185.00  0.000  
 2186.00  0.000  
 2187.00  0.000  
 2188.00  0.000  
 2189.00  0.000  
 2190.00  0.000  
 2191.00  0.000  
 2192.00  0.000  
 2193.00  0.000  
 2194.00  0.000  
 2195.00  0.000  
 2196.00  0.000  
 2197.00  0.000  
 2198.00  0.000  
 2199.00  0.000  
 2200.00  0.000  
 2201.00  0.000  
 2202.00  0.000  
 2203.00  0.000  
 2204.00  0.000  
 2205.00  0.000  
 2206.00  0.000  
 2207.00  0.000  
 2208.00  0.000  
 2209.00  0.000  
 2210.00  0.000  
 2211.00  0.000  
 2212.00  0.000  
 2213.00  0.000  
 2214.00  0.000  
 2215.00  0.000  
 2216.00  0.000  
 2217.00  0.000  
 2218.00  0.000  
 2219.00  0.000  
 2220.00  0.000  
 2221.00  0.000  
 2222.00  0.000  
 2223.00  0.000  
 2224.00  0.000  
 2225.00  0.000  
 2226.00  0.000  
 2227.00  0.000  
 2228.00  0.000  
 2229.00  0.000  
 2230.00  0.000  
 2231.00  0.000  
 2232.00  0.000  
 2233.00  0.000  
 2234.00  0.000  
 2235.00  0.000  
 2236.00  0.000  
 2237.00  0.000  
 2238.00  0.000  
 2239.00  0.000  
 2240.00  0.000  
 2241.00  0.000  
 2242.00  0.000  
 2243.00  0.000  
 2244.00  0.000  
 2245.00  0.000  
 2246.00  0.000  
 2247.00  0.000  
 2248.00  0.000  
 2249.00  0.000  
 2250.00  0.000  
 2251.00  0.000  
 2252.00  0.000  
 2253.00  0.000  
 2254.00  0.000  
 2255.00  0.000  
 2256.00  0.000  
 2257.00  0.000  
 2258.00  0.000  
 2259.00  0.000  
 2260.00  0.000  
 2261.00  0.000  
 2262.00  0.000  
 2263.00  0.000  
 2264.00  0.000  
 2265.00  0.000  
 2266.00  0.000  
 2267.00  0.000  
 2268.00  0.000  
 2269.00  0.000  
 2270.00  0.000  
 2271.00  0.000  
 2272.00  0.000  
 2273.00  0.000  
 2274.00  0.000  
 2275.00  0.000  
 2276.00  0.000  
 2277.00  0.000  
 2278.00  0.000  
 2279.00  0.000  
 2280.00  0.000  
 2281.00  0.000  
 2282.00  0.000  
 2283.00  0.000  
 2284.00  0.000  
 2285.00  0.000  
 2286.00  0.000  
 2287.00  0.000  
 2288.00  0.000  
 2289.00  0.000  
 2290.00  0.000  
 2291.00  0.000  
 2292.00  0.000  
 2293.00  0.000  
 2294.00  0.000  
 2295.00  0.000  
 2296.00  0.000  
 2297.00  0.000  
 2298.00  0.000  
 2299.00  0.000  
 2300.00  0.000  
 2301.00  0.000  
 2302.00  0.000  
 2303.00  0.000  
 2304.00  0.000  
 2305.00  0.000  
 2306.00  0.000  
 2307.00  0.000  
 2308.00  0.000  
 2309.00  0.000  
 2310.00  0.000  
 2311.00  0.000  
 2312.00  0.000  
 2313.00  0.000  
 2314.00  0.000  
 2315.00  0.000  
 2316.00  0.000  
 2317.00  0.000  
 2318.00  0.000  
 2319.00  0.000  
 2320.00  0.000  
 2321.00  0.000  
 2322.00  0.000  
 2323.00  0.000  
 2324.00  0.000  
 2325.00  0.000  
 2326.00  0.000  
 2327.00  0.000  
 2328.00  0.000  
 2329.00  0.000  
 2330.00  0.000  
 2331.00  0.000  
 2332.00  0.000  
 2333.00  0.000  
 2334.00  0.000  
 2335.00  0.000  
 2336.00  0.000  
 2337.00  0.000  
 2338.00  0.000  
 2339.00  0.000  
 2340.00  0.000  
 2341.00  0.000  
 2342.00  0.000  
 2343.00  0.000  
 2344.00  0.000  
 2345.00  0.000  
 2346.00  0.000  
 2347.00  0.000  
 2348.00  0.000  
 2349.00  0.000  
 2350.00  0.000  
 2351.00  0.000  
 2352.00  0.000  
 2353.00  0.000  
 2354.00  0.000  
 2355.00  0.000  
 2356.00  0.000  
 2357.00  0.000  
 2358.00  0.000  
 2359.00  0.000  
 2360.00  0.000  
 2361.00  0.000  
 2362.00  0.000  
 2363.00  0.000  
 2364.00  0.000  
 2365.00  0.000  
 2366.00  0.000  
 2367.00  0.000  
 2368.00  0.000  
 2369.00  0.000  
 2370.00  0.000  
 2371.00  0.000  
 2372.00  0.000  
 2373.00  0.000  
 2374.00  0.000  
 2375.00  0.000  
 2376.00  0.000  
 2377.00  0.000  
 2378.00  0.000  
 2379.00  0.000  
 2380.00  0.000  
 2381.00  0.000  
 2382.00  0.000  
 2383.00  0.000  
 2384.00  0.000  
 2385.00  0.000  
 2386.00  0.000  
 2387.00  0.000  
 2388.00  0.000  
 2389.00  0.000  
 2390.00  0.000  
 2391.00  0.000  
 2392.00  0.000  
 2393.00  0.000  
 2394.00  0.000  
 2395.00  0.000  
 2396.00  0.000  
 2397.00  0.000  
 2398.00  0.000  
 2399.00  0.000  
 2400.00  0.000  
 2401.00  0.000  
 2402.00  0.000  
 2403.00  0.000  
 2404.00  0.000  
 2405.00  0.000  
 2406.00  0.000  
 2407.00  0.000  
 2408.00  0.000  
 2409.00  0.000  
 2410.00  0.000  
 2411.00  0.000  
 2412.00  0.000  
 2413.00  0.000  
 2414.00  0.000  
 2415.00  0.000  
 2416.00  0.000  
 2417.00  0.000  
 2418.00  0.000  
 2419.00  0.000  
 2420.00  0.000  
 2421.00  0.000  
 2422.00  0.000  
 2423.00  0.000  
 2424.00  0.000  
 2425.00  0.000  
 2426.00  0.000  
 2427.00  0.000  
 2428.00  0.000  
 2429.00  0.000  
 2430.00  0.000  
 2431.00  0.000  
 2432.00  0.000  
 2433.00  0.000  
 2434.00  0.000  
 2435.00  0.000  
 2436.00  0.000  
 2437.00  0.000  
 2438.00  0.000  
 2439.00  0.000  
 2440.00  0.000  
 2441.00  0.000  
 2442.00  0.000  
 2443.00  0.000  
 2444.00  0.000  
 2445.00  0.000  
 2446.00  0.000  
 2447.00  0.000  
 2448.00  0.000  
 2449.00  0.000  
 2450.00  0.000  
 2451.00  0.000  
 2452.00  0.000  
 2453.00  0.000  
 2454.00  0.000  
 2455.00  0.000  
 2456.00  0.000  
 2457.00  0.000  
 2458.00  0.000  
 2459.00  0.000  
 2460.00  0.000  
 2461.00  0.000  
 2462.00  0.000  
 2463.00  0.000  
 2464.00  0.000  
 2465.00  0.000  
 2466.00  0.000  
 2467.00  0.000  
 2468.00  0.000  
 2469.00  0.000  
 2470.00  0.000  
 2471.00  0.000  
 2472.00  0.000  
 2473.00  0.000  
 2474.00  0.000  
 2475.00  0.000  
 2476.00  0.000  
 2477.00  0.000  
 2478.00  0.000  
 2479.00  0.000  
 2480.00  0.000  
 2481.00  0.000  
 2482.00  0.000  
 2483.00  0.000  
 2484.00  0.000  
 2485.00  0.000  
 2486.00  0.000  
 2487.00  0.000  
 2488.00  0.000  
 2489.00  0.000  
 2490.00  0.000  
 2491.00  0.000  
 2492.00  0.000  
 2493.00  0.000  
 2494.00  0.000  
 2495.00  0.000  
 2496.00  0.000  
 2497.00  0.000  
 2498.00  0.000  
 2499.00  0.000  
 2500.00  0.000  
 2501.00  0.000  
 2502.00  0.000  
 2503.00  0.000  
 2504.00  0.000  
 2505.00  0.000  
 2506.00  0.000  
 2507.00  0.000  
 2508.00  0.000  
 2509.00  0.000  
 2510.00  0.000  
 2511.00  0.000  
 2512.00  0.000  
 2513.00  0.000  
 2514.00  0.000  
 2515.00  0.000  
 2516.00  0.000  
 2517.00  0.000  
 2518.00  0.000  
 2519.00  0.000  
 2520.00  0.000  
 2521.00  0.000  
 2522.00  0.000  
 2523.00  0.000  
 2524.00  0.000  
 2525.00  0.000  
 2526.00  0.000  
 2527.00  0.000  
 2528.00  0.000  
 2529.00  0.000  
 2530.00  0.000  
 2531.00  0.000  
 2532.00  0.000  
 2533.00  0.000  
 2534.00  0.000  
 2535.00  0.000  
 2536.00  0.000  
 2537.00  0.000  
 2538.00  0.000  
 2539.00  0.000  
 2540.00  0.000  
 2541.00  0.000  
 2542.00  0.000  
 2543.00  0.000  
 2544.00  0.000  
 2545.00  0.000  
 2546.00  0.000  
 2547.00  0.000  
 2548.00  0.000  
 2549.00  0.000  
 2550.00  0.000  
 2551.00  0.000  
 2552.00  0.000  
 2553.00  0.000  
 2554.00  0.000  
 2555.00  0.000  
 2556.00  0.000  
 2557.00  0.000  
 2558.00  0.000  
 2559.00  0.000  
 2560.00  0.000  
 2561.00  0.000  
 2562.00  0.000  
 2563.00  0.000  
 2564.00  0.000  
 2565.00  0.000  
 2566.00  0.000  
 2567.00  0.000  
 2568.00  0.000  
 2569.00  0.000  
 2570.00  0.000  
 2571.00  0.000  
 2572.00  0.000  
 2573.00  0.000  
 2574.00  0.000  
 2575.00  0.000  
 2576.00  0.000  
 2577.00  0.000  
 2578.00  0.000  
 2579.00  0.000  
 2580.00  0.000  
 2581.00  0.000  
 2582.00  0.000  
 2583.00  0.000  
 2584.00  0.000  
 2585.00  0.000  
 2586.00  0.000  
 2587.00  0.000  
 2588.00  0.000  
 2589.00  0.000  
 2590.00  0.000  
 2591.00  0.000  
 2592.00  0.000  
 2593.00  0.000  
 2594.00  0.000  
 2595.00  0.000  
 2596.00  0.000  
 2597.00  0.000  
 2598.00  0.000  
 2599.00  0.000  
 2600.00  0.000  
 2601.00  0.000  
 2602.00  0.000  
 2603.00  0.000  
 2604.00  0.000  
 2605.00  0.000  
 2606.00  0.000  
 2607.00  0.000  
 2608.00  0.000  
 2609.00  0.000  
 2610.00  0.000  
 2611.00  0.000  
 2612.00  0.000  
 2613.00  0.000  
 2614.00  0.000  
 2615.00  0.000  
 2616.00  0.000  
 2617.00  0.000  
 2618.00  0.000  
 2619.00  0.000  
 2620.00  0.000  
 2621.00  0.000  
 2622.00  0.000  
 2623.00  0.000  
 2624.00  0.000  
 2625.00  0.000  
 2626.00  0.000  
 2627.00  0.000  
 2628.00  0.000  
 2629.00  0.000  
 2630.00  0.000  
 2631.00  0.000  
 2632.00  0.000  
 2633.00  0.000  
 2634.00  0.000  
 2635.00  0.000  
 2636.00  0.000  
 2637.00  0.000  
 2638.00  0.000  
 2639.00  0.000  
 2640.00  0.000  
 2641.00  0.000  
 2642.00  0.000  
 2643.00  0.000  
 2644.00  0.000  
 2645.00  0.000  
 2646.00  0.000  
 2647.00  0.000  
 2648.00  0.000  
 2649.00  0.000  
 2650.00  0.000  
 2651.00  0.000  
 2652.00  0.000  
 2653.00  0.000  
 2654.00  0.000  
 2655.00  0.000  
 2656.00  0.000  
 2657.00  0.000  
 2658.00  0.000  
 2659.00  0.000  
 2660.00  0.000  
 2661.00  0.000  
 2662.00  0.000  
 2663.00  0.000  
 2664.00  0.000  
 2665.00  0.000  
 2666.00  0.000  
 2667.00  0.000  
 2668.00  0.000  
 2669.00  0.000  
 2670.00  0.000  
 2671.00  0.000  
 2672.00  0.000  
 2673.00  0.000  
 2674.00  0.000  
 2675.00  0.000  
 2676.00  0.000  
 2677.00  0.000  
 2678.00  0.000  
 2679.00  0.000  
 2680.00  0.000  
 2681.00  0.000  
 2682.00  0.000  
 2683.00  0.000  
 2684.00  0.000  
 2685.00  0.000  
 2686.00  0.000  
 2687.00  0.000  
 2688.00  0.000  
 2689.00  0.000  
 2690.00  0.000  
 2691.00  0.000  
 2692.00  0.000  
 2693.00  0.000  
 2694.00  0.000  
 2695.00  0.000  
 2696.00  0.000  
 2697.00  0.000  
 2698.00  0.000  
 2699.00  0.000  
 2700.00  0.000  
 2701.00  0.000  
 2702.00  0.000  
 2703.00  0.000  
 2704.00  0.000  
 2705.00  0.000  
 2706.00  0.000  
 2707.00  0.000  
 2708.00  0.000  
 2709.00  0.000  
 2710.00  0.000  
 2711.00  0.000  
 2712.00  0.000  
 2713.00  0.000  
 2714.00  0.000  
 2715.00  0.000  
 2716.00  0.000  
 2717.00  0.000  
 2718.00  0.000  
 2719.00  0.000  
 2720.00  0.000  
 2721.00  0.000  
 2722.00  0.000  
 2723.00  0.000  
 2724.00  0.000  
 2725.00  0.000  
 2726.00  0.000  
 2727.00  0.000  
 2728.00  0.000  
 2729.00  0.000  
 2730.00  0.000  
 2731.00  0.000  
 2732.00  0.000  
 2733.00  0.000  
 2734.00  0.000  
 2735.00  0.000  
 2736.00  0.000  
 2737.00  0.000  
 2738.00  0.000  
 2739.00  0.000  
 2740.00  0.000  
 2741.00  0.000  
 2742.00  0.000  
 2743.00  0.000  
 2744.00  0.000  
 2745.00  0.000  
 2746.00  0.000  
 2747.00  0.000  
 2748.00  0.000  
 2749.00  0.000  
 2750.00  0.000  
 2751.00  0.000  
 2752.00  0.000  
 2753.00  0.000  
 2754.00  0.000  
 2755.00  0.000  
 2756.00  0.000  
 2757.00  0.000  
 2758.00  0.000  
 2759.00  0.000  
 2760.00  0.000  
 2761.00  0.000  
 2762.00  0.000  
 2763.00  0.000  
 2764.00  0.000  
 2765.00  0.000  
 2766.00  0.000  
 2767.00  0.000  
 2768.00  0.000  
 2769.00  0.000  
 2770.00  0.000  
 2771.00  0.000  
 2772.00  0.000  
 2773.00  0.000  
 2774.00  0.000  
 2775.00  0.000  
 2776.00  0.000  
 2777.00  0.000  
 2778.00  0.000  
 2779.00  0.000  
 2780.00  0.000  
 2781.00  0.000  
 2782.00  0.000  
 2783.00  0.000  
 2784.00  0.000  
 2785.00  0.000  
 2786.00  0.000  
 2787.00  0.000  
 2788.00  0.000  
 2789.00  0.000  
 2790.00  0.000  
 2791.00  0.000  
 2792.00  0.000  
 2793.00  0.000  
 2794.00  0.000  
 2795.00  0.000  
 2796.00  0.000  
 2797.00  0.000  
 2798.00  0.000  
 2799.00  0.000  
 2800.00  0.000  
 2801.00  0.000  
 2802.00  0.000  
 2803.00  0.000  
 2804.00  0.000  
 2805.00  0.000  
 2806.00  0.000  
 2807.00  0.000  
 2808.00  0.000  
 2809.00  0.000  
 2810.00  0.000  
 2811.00  0.000  
 2812.00  0.000  
 2813.00  0.000  
 2814.00  0.000  
 2815.00  0.000  
 2816.00  0.000  
 2817.00  0.000  
 2818.00  0.000  
 2819.00  0.000  
 2820.00  0.000  
 2821.00  0.000  
 2822.00  0.000  
 2823.00  0.000  
 2824.00  0.000  
 2825.00  0.000  
 2826.00  0.000  
 2827.00  0.000  
 2828.00  0.000  
 2829.00  0.000  
 2830.00  0.000  
 2831.00  0.000  
 2832.00  0.000  
 2833.00  0.000  
 2834.00  0.000  
 2835.00  0.000  
 2836.00  0.000  
 2837.00  0.000  
 2838.00  0.000  
 2839.00  0.000  
 2840.00  0.000  
 2841.00  0.000  
 2842.00  0.000  
 2843.00  0.000  
 2844.00  0.000  
 2845.00  0.000  
 2846.00  0.000  
 2847.00  0.000  
 2848.00  0.000  
 2849.00  0.000  
 2850.00  0.000  
 2851.00  0.000  
 2852.00  0.000  
 2853.00  0.000  
 2854.00  0.000  
 2855.00  0.000  
 2856.00  0.000  
 2857.00  0.000  
 2858.00  0.000  
 2859.00  0.000  
 2860.00  0.001  
 2861.00  0.001  
 2862.00  0.001  
 2863.00  0.001  
 2864.00  0.001  
 2865.00  0.001  
 2866.00  0.001  
 2867.00  0.001  
 2868.00  0.001  
 2869.00  0.001  
 2870.00  0.001  
 2871.00  0.001  
 2872.00  0.001  
 2873.00  0.001  
 2874.00  0.001  
 2875.00  0.001  
 2876.00  0.001  
 2877.00  0.001  
 2878.00  0.001  
 2879.00  0.001  
 2880.00  0.001  
 2881.00  0.001  
 2882.00  0.001  
 2883.00  0.001  
 2884.00  0.001  
 2885.00  0.001  
 2886.00  0.001  
 2887.00  0.001  
 2888.00  0.001  
 2889.00  0.001  
 2890.00  0.001  
 2891.00  0.001  
 2892.00  0.001  
 2893.00  0.001  
 2894.00  0.001  
 2895.00  0.001  
 2896.00  0.001  
 2897.00  0.001  
 2898.00  0.002  
 2899.00  0.002  
 2900.00  0.002  
 2901.00  0.002  
 2902.00  0.002  
 2903.00  0.002  
 2904.00  0.002  
 2905.00  0.002  
 2906.00  0.002  
 2907.00  0.002  
 2908.00  0.002  
 2909.00  0.003  
 2910.00  0.003  
 2911.00  0.003  
 2912.00  0.003  
 2913.00  0.003  
 2914.00  0.003  
 2915.00  0.004  
 2916.00  0.004  
 2917.00  0.004  
 2918.00  0.005  
 2919.00  0.005  
 2920.00  0.005  
 2921.00  0.006  
 2922.00  0.006  
 2923.00  0.007  
 2924.00  0.007  
 2925.00  0.008  
 2926.00  0.009  
 2927.00  0.010  
 2928.00  0.011  
 2929.00  0.013  
 2930.00  0.014  
 2931.00  0.016  
 2932.00  0.018  
 2933.00  0.021  
 2934.00  0.025  
 2935.00  0.029  
 2936.00  0.034  
 2937.00  0.041  
 2938.00  0.049  
 2939.00  0.060  
 2940.00  0.074  
 2941.00  0.089  
 2942.00  0.106  
 2943.00  0.121  
 2944.00  0.130  
 2945.00  0.130  
 2946.00  0.120  
 2947.00  0.104  
 2948.00  0.087  
 2949.00  0.072  
 2950.00  0.059  
 2951.00  0.048  
 2952.00  0.040  
 2953.00  0.033  
 2954.00  0.028  
 2955.00  0.024  
 2956.00  0.021  
 2957.00  0.018  
 2958.00  0.016  
 2959.00  0.014  
 2960.00  0.012  
 2961.00  0.011  
 2962.00  0.010  
 2963.00  0.009  
 2964.00  0.008  
 2965.00  0.007  
 2966.00  0.007  
 2967.00  0.006  
 2968.00  0.006  
 2969.00  0.005  
 2970.00  0.005  
 2971.00  0.005  
 2972.00  0.004  
 2973.00  0.004  
 2974.00  0.004  
 2975.00  0.003  
 2976.00  0.003  
 2977.00  0.003  
 2978.00  0.003  
 2979.00  0.003  
 2980.00  0.003  
 2981.00  0.002  
 2982.00  0.002  
 2983.00  0.002  
 2984.00  0.002  
 2985.00  0.002  
 2986.00  0.002  
 2987.00  0.002  
 2988.00  0.002  
 2989.00  0.002  
 2990.00  0.002  
 2991.00  0.002  
 2992.00  0.001  
 2993.00  0.001  
 2994.00  0.001  
 2995.00  0.001  
 2996.00  0.001  
 2997.00  0.001  
 2998.00  0.001  
 2999.00  0.001  
 3000.00  0.001  
 3001.00  0.001  
 3002.00  0.001  
 3003.00  0.001  
 3004.00  0.001  
 3005.00  0.001  
 3006.00  0.001  
 3007.00  0.001  
 3008.00  0.001  
 3009.00  0.001  
 3010.00  0.001  
 3011.00  0.001  
 3012.00  0.001  
 3013.00  0.001  
 3014.00  0.001  
 3015.00  0.001  
 3016.00  0.001  
 3017.00  0.001  
 3018.00  0.001  
 3019.00  0.001  
 3020.00  0.001  
 3021.00  0.001  
 3022.00  0.001  
 3023.00  0.001  
 3024.00  0.001  
 3025.00  0.001  
 3026.00  0.001  
 3027.00  0.001  
 3028.00  0.001  
 3029.00  0.000  
 3030.00  0.000  
 3031.00  0.000  
 3032.00  0.000  
 3033.00  0.000  
 3034.00  0.000  
 3035.00  0.000  
 3036.00  0.000  
 3037.00  0.000  
 3038.00  0.000  
 3039.00  0.000  
 3040.00  0.000  
 3041.00  0.000  
 3042.00  0.000  
 3043.00  0.000  
 3044.00  0.000  
 3045.00  0.000  
 3046.00  0.000  
 3047.00  0.000  
 3048.00  0.000  
 3049.00  0.000  
 3050.00  0.000  
 3051.00  0.000  
 3052.00  0.000  
 3053.00  0.000  
 3054.00  0.000  
 3055.00  0.000  
 3056.00  0.000  
 3057.00  0.000  
 3058.00  0.000  
 3059.00  0.000  
 3060.00  0.000  
 3061.00  0.000  
 3062.00  0.000  
 3063.00  0.000  
 3064.00  0.000  
 3065.00  0.000  
 3066.00  0.000  
 3067.00  0.000  
 3068.00  0.000  
 3069.00  0.000  
 3070.00  0.000  
 3071.00  0.000  
 3072.00  0.000  
 3073.00  0.000  
 3074.00  0.000  
 3075.00  0.000  
 3076.00  0.000  
 3077.00  0.000  
 3078.00  0.000  
 3079.00  0.000  
 3080.00  0.000  
 3081.00  0.000  
 3082.00  0.000  
 3083.00  0.000  
 3084.00  0.000  
 3085.00  0.000  
 3086.00  0.000  
 3087.00  0.000  
 3088.00  0.000  
 3089.00  0.000  
 3090.00  0.000  
 3091.00  0.000  
 3092.00  0.000  
 3093.00  0.000  
 3094.00  0.000  
 3095.00  0.000  
 3096.00  0.000  
 3097.00  0.000  
 3098.00  0.000  
 3099.00  0.000  
 3100.00  0.000  
